#
# Spectrum of HD260655, spectral type M0v
# Source: Jacoby, Hunter, & Christian, 1984, ApJ, 56, 257
#         Scaled to flux=1.0 at 5500 Angstroms.
#
# Wave: wavelength in Angstroms
# Flux: scaled flux normalized to 1.0 at 5500A then shifted
#       in order of spectral type
Wave            Flux
3510.0000       3.12986851E+00
3511.3999       3.08159542E+00
3512.8000       3.08014679E+00
3514.2000       3.10645676E+00
3515.6001       3.10950089E+00
3517.0000       3.10593224E+00
3518.3999       3.10918617E+00
3519.8000       3.09293461E+00
3521.2000       3.06111240E+00
3522.6001       3.05692387E+00
3524.0000       3.07540131E+00
3525.3999       3.08736992E+00
3526.8000       3.11601067E+00
3528.2000       3.11107635E+00
3529.6001       3.10422039E+00
3531.0000       3.14593220E+00
3532.3999       3.18005276E+00
3533.8000       3.17217827E+00
3535.2000       3.17165375E+00
3536.6001       3.19947529E+00
3538.0000       3.16587925E+00
3539.3999       3.14068222E+00
3540.8000       3.16776943E+00
3542.2000       3.18341255E+00
3543.6001       3.17186356E+00
3545.0000       3.19002628E+00
3546.3999       3.17364788E+00
3547.8000       3.13700771E+00
3549.2000       3.11789989E+00
3550.6001       3.09652519E+00
3552.0000       3.08996296E+00
3553.3999       3.11317539E+00
3554.8000       3.14761162E+00
3556.2000       3.12839890E+00
3557.6001       3.11748028E+00
3559.0000       3.13658810E+00
3560.3999       3.12934399E+00
3561.8000       3.11023617E+00
3563.2000       3.10561657E+00
3564.6001       3.09519196E+00
3566.0000       3.10029411E+00
3567.3999       3.10614204E+00
3568.8000       3.08885002E+00
3570.2000       3.08172226E+00
3571.6001       3.08538628E+00
3573.0000       3.10159588E+00
3574.3999       3.11128616E+00
3575.8000       3.07821560E+00
3577.2000       3.04440975E+00
3578.6001       3.04701328E+00
3580.0000       3.05119133E+00
3581.3999       3.05043602E+00
3582.8000       3.06586838E+00
3584.2000       3.07255650E+00
3585.6001       3.07117081E+00
3587.0000       3.09553814E+00
3588.3999       3.11212635E+00
3589.8000       3.11380577E+00
3591.2000       3.09762764E+00
3592.6001       3.07075024E+00
3594.0000       3.08031464E+00
3595.3999       3.13102341E+00
3596.8000       3.14582634E+00
3598.2000       3.13312340E+00
3599.6001       3.13144398E+00
3601.0000       3.13039398E+00
3602.3999       3.12398911E+00
3603.8000       3.11181068E+00
3605.2000       3.09292412E+00
3606.6001       3.09169579E+00
3608.0000       3.08541775E+00
3609.3999       3.09090805E+00
3610.8000       3.09777451E+00
3612.2000       3.11160088E+00
3613.6001       3.14992142E+00
3615.0000       3.14551163E+00
3616.3999       3.09905529E+00
3617.8000       3.07787895E+00
3619.2000       3.09560108E+00
3620.6001       3.11874008E+00
3622.0000       3.11832047E+00
3623.3999       3.11695576E+00
3624.8000       3.12388420E+00
3626.2000       3.11643028E+00
3627.6001       3.10002136E+00
3629.0000       3.09143353E+00
3630.3999       3.08690834E+00
3631.8000       3.08722305E+00
3633.2000       3.11685085E+00
3634.6001       3.13217831E+00
3636.0000       3.13186359E+00
3637.3999       3.13963223E+00
3638.8000       3.16472435E+00
3640.2000       3.16734886E+00
3641.6001       3.12850380E+00
3643.0000       3.11454105E+00
3644.3999       3.10719204E+00
3645.8000       3.10183716E+00
3647.2000       3.10708618E+00
3648.6001       3.12063026E+00
3650.0000       3.10981655E+00
3651.3999       3.10750675E+00
3652.8000       3.11433029E+00
3654.2000       3.11517048E+00
3655.6001       3.12524891E+00
3657.0000       3.14939594E+00
3658.3999       3.14089203E+00
3659.8000       3.12965870E+00
3661.2000       3.12808418E+00
3662.6001       3.14425182E+00
3664.0000       3.15422535E+00
3665.3999       3.14855671E+00
3666.8000       3.15758514E+00
3668.2000       3.15559101E+00
3669.6001       3.13112831E+00
3671.0000       3.11632538E+00
3672.3999       3.11874008E+00
3673.8000       3.13028908E+00
3675.2000       3.13690281E+00
3676.6001       3.14404202E+00
3678.0000       3.12325478E+00
3679.3999       3.11359596E+00
3680.8000       3.11055088E+00
3682.2000       3.11265087E+00
3683.6001       3.12084007E+00
3685.0000       3.11349106E+00
3686.3999       3.10740185E+00
3687.8000       3.11527538E+00
3689.2000       3.14425182E+00
3690.6001       3.17091846E+00
3692.0000       3.16787434E+00
3693.3999       3.16272926E+00
3694.8000       3.14341164E+00
3696.2000       3.13333321E+00
3697.6001       3.14666653E+00
3699.0000       3.16556454E+00
3700.3999       3.14950085E+00
3701.8000       3.13784790E+00
3703.2000       3.11107635E+00
3704.6001       3.08762169E+00
3706.0000       3.08773708E+00
3707.3999       3.10519695E+00
3708.8000       3.10530186E+00
3710.2000       3.13081360E+00
3711.6001       3.14750671E+00
3713.0000       3.15643024E+00
3714.3999       3.14992142E+00
3715.8000       3.12608910E+00
3717.2000       3.10750675E+00
3718.6001       3.08532238E+00
3720.0000       3.07521248E+00
3721.3999       3.07058239E+00
3722.8000       3.07736492E+00
3724.2000       3.09636784E+00
3725.6001       3.11065578E+00
3727.0000       3.10813618E+00
3728.3999       3.10540676E+00
3729.8000       3.10855675E+00
3731.2000       3.10876656E+00
3732.6001       3.09496021E+00
3734.0000       3.07542229E+00
3735.3999       3.07426739E+00
3736.8000       3.06982708E+00
3738.2000       3.06689739E+00
3739.6001       3.07616806E+00
3741.0000       3.10056686E+00
3742.3999       3.09574795E+00
3743.8000       3.08142757E+00
3745.2000       3.06975365E+00
3746.6001       3.06501865E+00
3748.0000       3.07298660E+00
3749.3999       3.08690834E+00
3750.8000       3.10303402E+00
3752.2000       3.13574791E+00
3753.6001       3.14362240E+00
3755.0000       3.11569595E+00
3756.3999       3.08359051E+00
3757.8000       3.09020519E+00
3759.2000       3.10845184E+00
3760.6001       3.12356949E+00
3762.0000       3.13270378E+00
3763.3999       3.12577438E+00
3764.8000       3.11254597E+00
3766.2000       3.12598419E+00
3767.6001       3.14582634E+00
3769.0000       3.15391064E+00
3770.3999       3.15359592E+00
3771.8000       3.15286064E+00
3773.2000       3.15611553E+00
3774.6001       3.15915966E+00
3776.0000       3.15758514E+00
3777.3999       3.15569592E+00
3778.8000       3.16125965E+00
3780.2000       3.18036747E+00
3781.6001       3.17721748E+00
3783.0000       3.16272926E+00
3784.3999       3.15464592E+00
3785.8000       3.14372730E+00
3787.2000       3.13921261E+00
3788.6001       3.13868809E+00
3790.0000       3.14141750E+00
3791.3999       3.14404202E+00
3792.8000       3.13816261E+00
3794.2000       3.12829399E+00
3795.6001       3.11685085E+00
3797.0000       3.12125969E+00
3798.3999       3.14215183E+00
3799.8000       3.15727043E+00
3801.2000       3.16440964E+00
3802.6001       3.16808414E+00
3804.0000       3.15947533E+00
3805.3999       3.15779495E+00
3806.8000       3.16671944E+00
3808.2000       3.17175865E+00
3809.6001       3.17679787E+00
3811.0000       3.16587925E+00
3812.3999       3.14645672E+00
3813.8000       3.12934399E+00
3815.2000       3.10866165E+00
3816.6001       3.10593224E+00
3818.0000       3.10845184E+00
3819.3999       3.10729694E+00
3820.8000       3.10834599E+00
3822.2000       3.10782146E+00
3823.6001       3.11443615E+00
3825.0000       3.10792637E+00
3826.3999       3.09729099E+00
3827.8000       3.09912872E+00
3829.2000       3.10070324E+00
3830.6001       3.09867764E+00
3832.0000       3.10191059E+00
3833.3999       3.11821556E+00
3834.8000       3.12934399E+00
3836.2000       3.13301849E+00
3837.6001       3.13532829E+00
3839.0000       3.12734890E+00
3840.3999       3.12304497E+00
3841.8000       3.13679790E+00
3843.2000       3.14918613E+00
3844.6001       3.16325474E+00
3846.0000       3.16230965E+00
3847.3999       3.14299202E+00
3848.8000       3.13438320E+00
3850.2000       3.12335968E+00
3851.6001       3.12587929E+00
3853.0000       3.12797928E+00
3854.3999       3.11086655E+00
3855.8000       3.09530735E+00
3857.2000       3.08846188E+00
3858.6001       3.09397411E+00
3860.0000       3.11118126E+00
3861.3999       3.13112831E+00
3862.8000       3.13900280E+00
3864.2000       3.14162731E+00
3865.6001       3.15999985E+00
3867.0000       3.17133904E+00
3868.3999       3.14530182E+00
3869.8000       3.11569595E+00
3871.2000       3.09770107E+00
3872.6001       3.11695576E+00
3874.0000       3.15002632E+00
3875.3999       3.14530182E+00
3876.8000       3.13217831E+00
3878.2000       3.12955379E+00
3879.6001       3.14929104E+00
3881.0000       3.16199493E+00
3882.3999       3.14498711E+00
3883.8000       3.12797928E+00
3885.2000       3.11023617E+00
3886.6001       3.11422539E+00
3888.0000       3.15076160E+00
3889.3999       3.16230965E+00
3890.8000       3.16084003E+00
3892.2000       3.15286064E+00
3893.6001       3.14236259E+00
3895.0000       3.14236259E+00
3896.3999       3.13774300E+00
3897.8000       3.13396358E+00
3899.2000       3.13648319E+00
3900.6001       3.13826752E+00
3902.0000       3.14771652E+00
3903.3999       3.15412045E+00
3904.8000       3.15695572E+00
3906.2000       3.15937042E+00
3907.6001       3.17070866E+00
3909.0000       3.16598415E+00
3910.3999       3.15894985E+00
3911.8000       3.16084003E+00
3913.2000       3.17774296E+00
3914.6001       3.19454098E+00
3916.0000       3.19748020E+00
3917.3999       3.18572140E+00
3918.8000       3.16304493E+00
3920.2000       3.15601063E+00
3921.6001       3.14467239E+00
3923.0000       3.14624691E+00
3924.3999       3.14687634E+00
3925.8000       3.14509201E+00
3927.2000       3.12514400E+00
3928.6001       3.10572147E+00
3930.0000       3.09462452E+00
3931.3999       3.09498119E+00
3932.8000       3.10887146E+00
3934.2000       3.10866165E+00
3935.6001       3.11244106E+00
3937.0000       3.11674500E+00
3938.3999       3.12052536E+00
3939.8000       3.12577438E+00
3941.2000       3.11359596E+00
3942.6001       3.10698128E+00
3944.0000       3.12031460E+00
3945.3999       3.13522339E+00
3946.8000       3.15097141E+00
3948.2000       3.16797924E+00
3949.6001       3.18110275E+00
3951.0000       3.19433117E+00
3952.3999       3.17837238E+00
3953.8000       3.15055084E+00
3955.2000       3.13270378E+00
3956.6001       3.11674500E+00
3958.0000       3.09713364E+00
3959.3999       3.09270382E+00
3960.8000       3.09325981E+00
3962.2000       3.09760666E+00
3963.6001       3.11139107E+00
3965.0000       3.11265087E+00
3966.3999       3.11422539E+00
3967.8000       3.12294006E+00
3969.2000       3.13868809E+00
3970.6001       3.14593220E+00
3972.0000       3.15023613E+00
3973.3999       3.16892433E+00
3974.8000       3.18687630E+00
3976.2000       3.19653511E+00
3977.6001       3.19359589E+00
3979.0000       3.19286060E+00
3980.3999       3.20157433E+00
3981.8000       3.21427822E+00
3983.2000       3.22225761E+00
3984.6001       3.21868801E+00
3986.0000       3.21847725E+00
3987.3999       3.22141743E+00
3988.8000       3.21963215E+00
3990.2000       3.22351742E+00
3991.6001       3.22824192E+00
3993.0000       3.22278214E+00
3994.3999       3.21186352E+00
3995.8000       3.20251942E+00
3997.2000       3.21028900E+00
3998.6001       3.22456646E+00
4000.0000       3.24115467E+00
4001.3999       3.24629879E+00
4002.8000       3.24902916E+00
4004.2000       3.24398994E+00
4005.6001       3.23380566E+00
4007.0000       3.22897625E+00
4008.3999       3.24430466E+00
4009.8000       3.26320171E+00
4011.2000       3.26477718E+00
4012.6001       3.26708698E+00
4014.0000       3.26635170E+00
4015.3999       3.25427818E+00
4016.8000       3.24262428E+00
4018.2000       3.23821545E+00
4019.6001       3.22320175E+00
4021.0000       3.22813606E+00
4022.3999       3.23842525E+00
4023.8000       3.24524975E+00
4025.2000       3.25910759E+00
4026.6001       3.25637817E+00
4028.0000       3.23107624E+00
4029.3999       3.19979000E+00
4030.8000       3.18771648E+00
4032.2000       3.20241451E+00
4033.6001       3.24063015E+00
4035.0000       3.28146935E+00
4036.3999       3.31055164E+00
4037.8000       3.31296539E+00
4039.2000       3.30152225E+00
4040.6001       3.27968502E+00
4042.0000       3.25186348E+00
4043.3999       3.23191643E+00
4044.8000       3.22740173E+00
4046.2000       3.23748016E+00
4047.6001       3.25469780E+00
4049.0000       3.27464581E+00
4050.3999       3.29385853E+00
4051.8000       3.29679775E+00
4053.2000       3.28273010E+00
4054.6001       3.26519680E+00
4056.0000       3.27118111E+00
4057.3999       3.28094482E+00
4058.8000       3.27191639E+00
4060.2000       3.25742817E+00
4061.6001       3.24430466E+00
4063.0000       3.24566936E+00
4064.3999       3.25364876E+00
4065.8000       3.25312328E+00
4067.2000       3.25973797E+00
4068.6001       3.26393700E+00
4070.0000       3.25942230E+00
4071.3999       3.26047230E+00
4072.8000       3.27139091E+00
4074.2000       3.26320171E+00
4075.6001       3.24419975E+00
4077.0000       3.24482918E+00
4078.3999       3.25606346E+00
4079.8000       3.26572227E+00
4081.2000       3.27065659E+00
4082.6001       3.27853012E+00
4084.0000       3.28934383E+00
4085.3999       3.30330753E+00
4086.8000       3.31013107E+00
4088.2000       3.30792618E+00
4089.6001       3.30120754E+00
4091.0000       3.29207325E+00
4092.3999       3.28136444E+00
4093.8000       3.26887131E+00
4095.2000       3.25774288E+00
4096.6001       3.25154877E+00
4098.0000       3.25312328E+00
4099.3999       3.25249386E+00
4100.7998       3.24829388E+00
4102.2002       3.25574780E+00
4103.6001       3.27212620E+00
4105.0000       3.28398991E+00
4106.3999       3.29753304E+00
4107.7998       3.29511833E+00
4109.2002       3.28157520E+00
4110.6001       3.26530170E+00
4112.0000       3.26204681E+00
4113.3999       3.27044582E+00
4114.7998       3.27947521E+00
4116.2002       3.27999973E+00
4117.6001       3.28083992E+00
4119.0000       3.29186344E+00
4120.3999       3.30047226E+00
4121.7998       3.29585266E+00
4123.2002       3.29469776E+00
4124.6001       3.28934383E+00
4126.0000       3.28168011E+00
4127.3999       3.27978992E+00
4128.7998       3.27811050E+00
4130.2002       3.26446152E+00
4131.6001       3.25616837E+00
4133.0000       3.26288700E+00
4134.3999       3.27569580E+00
4135.7998       3.29217815E+00
4137.2002       3.30152225E+00
4138.6001       3.29522324E+00
4140.0000       3.27254581E+00
4141.3999       3.25322819E+00
4142.7998       3.24839878E+00
4144.2002       3.26162720E+00
4145.6001       3.28063011E+00
4147.0000       3.29133892E+00
4148.3999       3.29385853E+00
4149.7998       3.29700756E+00
4151.2002       3.30047226E+00
4152.6001       3.30246735E+00
4154.0000       3.30897617E+00
4155.3999       3.31433105E+00
4156.7998       3.32566929E+00
4158.2002       3.34089279E+00
4159.6001       3.34299183E+00
4161.0000       3.33532810E+00
4162.3999       3.32262421E+00
4163.7998       3.30635166E+00
4165.2002       3.29984283E+00
4166.6001       3.29963303E+00
4168.0000       3.30761147E+00
4169.3999       3.29480362E+00
4170.7998       3.27926540E+00
4172.2002       3.27338600E+00
4173.6001       3.28398991E+00
4175.0000       3.30341244E+00
4176.3999       3.32293987E+00
4177.7998       3.33522320E+00
4179.2002       3.33364868E+00
4180.6001       3.30666637E+00
4182.0000       3.30257225E+00
4183.3999       3.30467224E+00
4184.7998       3.30551147E+00
4186.2002       3.29385853E+00
4187.6001       3.30320168E+00
4189.0000       3.30971146E+00
4190.3999       3.30887127E+00
4191.7998       3.30456734E+00
4193.2002       3.29973793E+00
4194.6001       3.29784775E+00
4196.0000       3.28682423E+00
4197.3999       3.27181053E+00
4198.7998       3.26750660E+00
4200.2002       3.27191639E+00
4201.6001       3.27800560E+00
4203.0000       3.29343796E+00
4204.3999       3.29280853E+00
4205.7998       3.29154873E+00
4207.2002       3.28776932E+00
4208.6001       3.29154873E+00
4210.0000       3.29007912E+00
4211.3999       3.28262424E+00
4212.7998       3.27265072E+00
4214.2002       3.25679779E+00
4215.6001       3.24661446E+00
4217.0000       3.23947525E+00
4218.3999       3.22393703E+00
4219.7998       3.19286060E+00
4221.2002       3.15464592E+00
4222.6001       3.11937046E+00
4224.0000       3.09316540E+00
4225.3999       3.08174324E+00
4226.7998       3.09608364E+00
4228.2002       3.11979008E+00
4229.6001       3.14404202E+00
4231.0000       3.16818905E+00
4232.3999       3.19265079E+00
4233.7998       3.21249390E+00
4235.2002       3.22981644E+00
4236.6001       3.24325466E+00
4238.0000       3.24671936E+00
4239.3999       3.24199486E+00
4240.7998       3.24482918E+00
4242.2002       3.25711250E+00
4243.6001       3.27065659E+00
4245.0000       3.25963211E+00
4246.3999       3.24745369E+00
4247.7998       3.24251938E+00
4249.2002       3.24829388E+00
4250.6001       3.23244095E+00
4252.0000       3.20703411E+00
4253.3999       3.19832039E+00
4254.7998       3.22162724E+00
4256.2002       3.24230957E+00
4257.6001       3.25385857E+00
4259.0000       3.26267719E+00
4260.3999       3.27317619E+00
4261.7998       3.28335953E+00
4263.2002       3.29595757E+00
4264.6001       3.30257225E+00
4266.0000       3.29763794E+00
4267.3999       3.29669285E+00
4268.7998       3.26656151E+00
4270.2002       3.22551155E+00
4271.6001       3.20084000E+00
4273.0000       3.20524979E+00
4274.3999       3.22624683E+00
4275.7998       3.25784779E+00
4277.2002       3.28787422E+00
4278.6001       3.29805756E+00
4280.0000       3.28724384E+00
4281.3999       3.28545952E+00
4282.7998       3.29217815E+00
4284.2002       3.28566933E+00
4285.6001       3.25690269E+00
4287.0000       3.22645664E+00
4288.3999       3.21438313E+00
4289.7998       3.22540665E+00
4291.2002       3.25721741E+00
4292.6001       3.28881931E+00
4294.0000       3.30551147E+00
4295.3999       3.30162716E+00
4296.7998       3.27328110E+00
4298.2002       3.25732327E+00
4299.6001       3.26047230E+00
4301.0000       3.26435661E+00
4302.3999       3.27538013E+00
4303.7998       3.27328110E+00
4305.2002       3.25879288E+00
4306.6001       3.25763798E+00
4308.0000       3.28493404E+00
4309.3999       3.32556438E+00
4310.7998       3.34939671E+00
4312.2002       3.35233593E+00
4313.6001       3.34446144E+00
4315.0000       3.33396339E+00
4316.3999       3.33522320E+00
4317.7998       3.34582710E+00
4319.2002       3.35538101E+00
4320.6001       3.35863495E+00
4322.0000       3.34887123E+00
4323.3999       3.33648300E+00
4324.7998       3.32535458E+00
4326.2002       3.32440948E+00
4327.6001       3.35548592E+00
4329.0000       3.39034081E+00
4330.3999       3.40199471E+00
4331.7998       3.40871429E+00
4333.2002       3.41091824E+00
4334.6001       3.39853001E+00
4336.0000       3.37753296E+00
4337.3999       3.36094475E+00
4338.7998       3.36094475E+00
4340.2002       3.37144375E+00
4341.6001       3.37459278E+00
4343.0000       3.36545944E+00
4344.3999       3.36976337E+00
4345.7998       3.39632511E+00
4347.2002       3.40283489E+00
4348.6001       3.38509178E+00
4350.0000       3.36283493E+00
4351.3999       3.33564281E+00
4352.7998       3.32860851E+00
4354.2002       3.35118103E+00
4355.6001       3.36934376E+00
4357.0000       3.38572216E+00
4358.3999       3.38624668E+00
4359.7998       3.38026237E+00
4361.2002       3.39296627E+00
4362.6001       3.40409470E+00
4364.0000       3.40147018E+00
4365.3999       3.39590549E+00
4366.7998       3.41091824E+00
4368.2002       3.42026234E+00
4369.6001       3.41406822E+00
4371.0000       3.40556431E+00
4372.3999       3.39863491E+00
4373.7998       3.38582706E+00
4375.2002       3.38351727E+00
4376.6001       3.39191628E+00
4378.0000       3.37837315E+00
4379.3999       3.35527515E+00
4380.7998       3.32734871E+00
4382.2002       3.30939674E+00
4383.6001       3.31768990E+00
4385.0000       3.35475063E+00
4386.3999       3.37627316E+00
4387.7998       3.38593197E+00
4389.2002       3.40461922E+00
4390.6001       3.42792606E+00
4392.0000       3.42792606E+00
4393.3999       3.41511822E+00
4394.7998       3.41469860E+00
4396.2002       3.43978977E+00
4397.6001       3.45280838E+00
4399.0000       3.45301819E+00
4400.3999       3.42971134E+00
4401.7998       3.38257217E+00
4403.2002       3.35758495E+00
4404.6001       3.35275555E+00
4406.0000       3.36199474E+00
4407.3999       3.38698196E+00
4408.7998       3.41081333E+00
4410.2002       3.42278194E+00
4411.6001       3.41900253E+00
4413.0000       3.40850353E+00
4414.3999       3.42425156E+00
4415.7998       3.45448780E+00
4417.2002       3.47464561E+00
4418.6001       3.48482895E+00
4420.0000       3.47811031E+00
4421.3999       3.44451427E+00
4422.7998       3.41784763E+00
4424.2002       3.40063000E+00
4425.6001       3.40125942E+00
4427.0000       3.43328094E+00
4428.3999       3.45847797E+00
4429.7998       3.46047211E+00
4431.2002       3.43338585E+00
4432.6001       3.39916039E+00
4434.0000       3.37690258E+00
4435.3999       3.40871429E+00
4436.7998       3.45280838E+00
4438.2002       3.48913383E+00
4439.6001       3.49490833E+00
4441.0000       3.49081326E+00
4442.3999       3.49385834E+00
4443.7998       3.50446224E+00
4445.2002       3.51747990E+00
4446.6001       3.50488186E+00
4448.0000       3.49879265E+00
4449.3999       3.48388481E+00
4450.7998       3.45669270E+00
4452.2002       3.39674568E+00
4453.6001       3.36650944E+00
4455.0000       3.37501335E+00
4456.3999       3.38971138E+00
4457.7998       3.39821529E+00
4459.2002       3.41574764E+00
4460.6001       3.44776917E+00
4462.0000       3.49039364E+00
4463.3999       3.51832008E+00
4464.7998       3.52367496E+00
4466.2002       3.52944851E+00
4467.6001       3.53616810E+00
4469.0000       3.55706024E+00
4470.3999       3.57060337E+00
4471.7998       3.57805729E+00
4473.2002       3.56797886E+00
4474.6001       3.58509159E+00
4476.0000       3.59244061E+00
4477.3999       3.57228374E+00
4478.7998       3.54897594E+00
4480.2002       3.56209946E+00
4481.6001       3.58162689E+00
4483.0000       3.58404160E+00
4484.3999       3.57921219E+00
4485.7998       3.56461906E+00
4487.2002       3.54887104E+00
4488.6001       3.55359554E+00
4490.0000       3.58026218E+00
4491.3999       3.57847786E+00
4492.7998       3.56293964E+00
4494.2002       3.55475044E+00
4495.6001       3.56776905E+00
4497.0000       3.59790039E+00
4498.3999       3.61396313E+00
4499.7998       3.62068272E+00
4501.2002       3.62467194E+00
4502.6001       3.62855625E+00
4504.0000       3.64052486E+00
4505.3999       3.63748074E+00
4506.7998       3.61522293E+00
4508.2002       3.60157490E+00
4509.6001       3.59737492E+00
4511.0000       3.59664059E+00
4512.3999       3.59548569E+00
4513.7998       3.58372688E+00
4515.2002       3.58120728E+00
4516.6001       3.58456707E+00
4518.0000       3.59223080E+00
4519.3999       3.60167980E+00
4520.7998       3.58666706E+00
4522.2002       3.58309746E+00
4523.6001       3.57910728E+00
4525.0000       3.55265045E+00
4526.3999       3.52566910E+00
4527.7998       3.53574848E+00
4529.2002       3.53805733E+00
4530.6001       3.49931717E+00
4532.0000       3.44671917E+00
4533.3999       3.44640446E+00
4534.7998       3.51286125E+00
4536.2002       3.58330727E+00
4537.6001       3.62099743E+00
4539.0000       3.61133862E+00
4540.3999       3.60440922E+00
4541.7998       3.59433079E+00
4543.2002       3.58173180E+00
4544.6001       3.57511806E+00
4546.0000       3.57301807E+00
4547.3999       3.59622002E+00
4548.7998       3.60000038E+00
4550.2002       3.58897591E+00
4551.6001       3.59275627E+00
4553.0000       3.61301804E+00
4554.3999       3.64482975E+00
4555.7998       3.66404152E+00
4557.2002       3.67726994E+00
4558.6001       3.68398952E+00
4560.0000       3.67905521E+00
4561.3999       3.66971111E+00
4562.7998       3.68041992E+00
4564.2002       3.71002579E+00
4565.6001       3.71716499E+00
4567.0000       3.70635128E+00
4568.3999       3.67590523E+00
4569.7998       3.66971111E+00
4571.2002       3.68598461E+00
4572.6001       3.68346405E+00
4574.0000       3.67611504E+00
4575.3999       3.66750622E+00
4576.7998       3.64293957E+00
4578.2002       3.62719154E+00
4579.6001       3.64524937E+00
4581.0000       3.66635132E+00
4582.3999       3.65711308E+00
4583.7998       3.62939644E+00
4585.2002       3.64461899E+00
4586.6001       3.67957973E+00
4588.0000       3.68797874E+00
4589.3999       3.67842484E+00
4590.7998       3.66446209E+00
4592.2002       3.67905521E+00
4593.6001       3.70582676E+00
4595.0000       3.71433067E+00
4596.3999       3.70908165E+00
4597.7998       3.68629932E+00
4599.2002       3.68178463E+00
4600.6001       3.69942284E+00
4602.0000       3.68608952E+00
4603.3999       3.66036701E+00
4604.7998       3.66855621E+00
4606.2002       3.71601009E+00
4607.6001       3.74362183E+00
4609.0000       3.74131203E+00
4610.3999       3.73102379E+00
4611.7998       3.72231007E+00
4613.2002       3.71202087E+00
4614.6001       3.70540714E+00
4616.0000       3.70257187E+00
4617.3999       3.71349049E+00
4618.7998       3.72661400E+00
4620.2002       3.73511791E+00
4621.6001       3.71559048E+00
4623.0000       3.69921303E+00
4624.3999       3.70141697E+00
4625.7998       3.71149635E+00
4627.2002       3.71968460E+00
4628.6001       3.72336006E+00
4630.0000       3.71664047E+00
4631.3999       3.68619442E+00
4632.7998       3.67590523E+00
4634.2002       3.68724442E+00
4635.6001       3.67380619E+00
4637.0000       3.65921211E+00
4638.3999       3.66750622E+00
4639.7998       3.69165325E+00
4641.2002       3.70771694E+00
4642.6001       3.69742775E+00
4644.0000       3.68598461E+00
4645.3999       3.74803162E+00
4646.7998       3.81165314E+00
4648.2002       3.78813648E+00
4649.6001       3.69438362E+00
4651.0000       3.64892387E+00
4652.3999       3.63811016E+00
4653.7998       3.65616798E+00
4655.2002       3.71286106E+00
4656.6001       3.77343845E+00
4658.0000       3.80892372E+00
4659.3999       3.80503941E+00
4660.7998       3.78845119E+00
4662.2002       3.78215218E+00
4663.6001       3.75160122E+00
4665.0000       3.69364834E+00
4666.3999       3.65900230E+00
4667.7998       3.68346405E+00
4669.2002       3.71926498E+00
4670.6001       3.71790028E+00
4672.0000       3.71926498E+00
4673.3999       3.72734928E+00
4674.7998       3.74257183E+00
4676.2002       3.74414730E+00
4677.6001       3.72524929E+00
4679.0000       3.70498657E+00
4680.3999       3.68913364E+00
4681.7998       3.70078754E+00
4683.2002       3.70750618E+00
4684.6001       3.69942284E+00
4686.0000       3.69742775E+00
4687.3999       3.69259834E+00
4688.7998       3.68545914E+00
4690.2002       3.70057774E+00
4691.6001       3.71601009E+00
4693.0000       3.70656204E+00
4694.3999       3.71013165E+00
4695.7998       3.71391106E+00
4697.2002       3.72482967E+00
4698.6001       3.70792675E+00
4700.0000       3.66834641E+00
4701.3999       3.66162682E+00
4702.7998       3.67632580E+00
4704.2002       3.72419930E+00
4705.6001       3.73837280E+00
4707.0000       3.70089245E+00
4708.3999       3.69501305E+00
4709.7998       3.71002579E+00
4711.2002       3.72766399E+00
4712.6001       3.75380611E+00
4714.0000       3.74078751E+00
4715.3999       3.72461987E+00
4716.7998       3.74141693E+00
4718.2002       3.74971104E+00
4719.6001       3.72724438E+00
4721.0000       3.71401596E+00
4722.3999       3.70708656E+00
4723.7998       3.70698166E+00
4725.2002       3.69144344E+00
4726.6001       3.67716503E+00
4728.0000       3.68703365E+00
4729.3999       3.68839931E+00
4730.7998       3.70267677E+00
4732.2002       3.70624638E+00
4733.6001       3.69490814E+00
4735.0000       3.67769051E+00
4736.3999       3.67821503E+00
4737.7998       3.69459343E+00
4739.2002       3.71275616E+00
4740.6001       3.71506596E+00
4742.0000       3.70257187E+00
4743.3999       3.69249344E+00
4744.7998       3.72241497E+00
4746.2002       3.72262478E+00
4747.6001       3.69816303E+00
4749.0000       3.67632580E+00
4750.3999       3.65375328E+00
4751.7998       3.65889740E+00
4753.2002       3.68241501E+00
4754.6001       3.68755913E+00
4756.0000       3.67044640E+00
4757.3999       3.65081406E+00
4758.7998       3.64031506E+00
4760.2002       3.63506603E+00
4761.6001       3.62267685E+00
4763.0000       3.60346413E+00
4764.3999       3.58929157E+00
4765.7998       3.59422588E+00
4767.2002       3.60640430E+00
4768.6001       3.59674549E+00
4770.0000       3.57427788E+00
4771.3999       3.55433083E+00
4772.7998       3.55065632E+00
4774.2002       3.53942299E+00
4775.6001       3.52398968E+00
4777.0000       3.51884556E+00
4778.3999       3.51842499E+00
4779.7998       3.51968479E+00
4781.2002       3.52178478E+00
4782.6001       3.52797890E+00
4784.0000       3.52724457E+00
4785.3999       3.53522301E+00
4786.7998       3.55401611E+00
4788.2002       3.56913376E+00
4789.6001       3.59254551E+00
4791.0000       3.60787392E+00
4792.3999       3.61921310E+00
4793.7998       3.61952782E+00
4795.2002       3.60944843E+00
4796.6001       3.60031509E+00
4798.0000       3.59916019E+00
4799.3999       3.60797882E+00
4800.7998       3.62918663E+00
4802.2002       3.64787388E+00
4803.6001       3.65900230E+00
4805.0000       3.65396309E+00
4806.3999       3.64440918E+00
4807.7998       3.63758564E+00
4809.2002       3.63034153E+00
4810.6001       3.62383175E+00
4812.0000       3.61753273E+00
4813.3999       3.62813663E+00
4814.7998       3.64619446E+00
4816.2002       3.65333366E+00
4817.6001       3.62677193E+00
4819.0000       3.60104942E+00
4820.3999       3.59506607E+00
4821.7998       3.58845139E+00
4823.2002       3.58918667E+00
4824.6001       3.60923862E+00
4826.0000       3.62855625E+00
4827.3999       3.62467194E+00
4828.7998       3.61868763E+00
4830.2002       3.60986900E+00
4831.6001       3.62971115E+00
4833.0000       3.62204742E+00
4834.3999       3.62876606E+00
4835.7998       3.64451408E+00
4837.2002       3.65259838E+00
4838.6001       3.63863564E+00
4840.0000       3.61942291E+00
4841.3999       3.62782192E+00
4842.7998       3.65984249E+00
4844.2002       3.68000031E+00
4845.6001       3.67905521E+00
4847.0000       3.66855621E+00
4848.3999       3.66194248E+00
4849.7998       3.66383171E+00
4851.2002       3.67170620E+00
4852.6001       3.67664051E+00
4854.0000       3.68062973E+00
4855.3999       3.68073463E+00
4856.7998       3.67601013E+00
4858.2002       3.67065620E+00
4859.6001       3.66939640E+00
4861.0000       3.66089249E+00
4862.3999       3.65186310E+00
4863.7998       3.66771698E+00
4865.2002       3.68755913E+00
4866.6001       3.67569542E+00
4868.0000       3.65217876E+00
4869.3999       3.62813663E+00
4870.7998       3.65721798E+00
4872.2002       3.66897678E+00
4873.6001       3.66267681E+00
4875.0000       3.65574837E+00
4876.3999       3.63706017E+00
4877.7998       3.66813660E+00
4879.2002       3.66803169E+00
4880.6001       3.65490818E+00
4882.0000       3.66467190E+00
4883.3999       3.68209934E+00
4884.7998       3.67968464E+00
4886.2002       3.66456699E+00
4887.6001       3.66173267E+00
4889.0000       3.65984249E+00
4890.3999       3.68608952E+00
4891.7998       3.73123360E+00
4893.2002       3.74561691E+00
4894.6001       3.72986889E+00
4896.0000       3.73679829E+00
4897.3999       3.73459339E+00
4898.7998       3.72377968E+00
4900.2002       3.73837280E+00
4901.6001       3.74918652E+00
4903.0000       3.73931789E+00
4904.3999       3.74456692E+00
4905.7998       3.76388454E+00
4907.2002       3.75926495E+00
4908.6001       3.74971104E+00
4910.0000       3.75527573E+00
4911.3999       3.76073456E+00
4912.7998       3.76419926E+00
4914.2002       3.75936985E+00
4915.6001       3.75307083E+00
4917.0000       3.73784828E+00
4918.3999       3.68965912E+00
4919.7998       3.68808365E+00
4921.2002       3.72209930E+00
4922.6001       3.74194241E+00
4924.0000       3.75034142E+00
4925.3999       3.77784729E+00
4926.7998       3.81196880E+00
4928.2002       3.82614136E+00
4929.6001       3.80062962E+00
4931.0000       3.75170612E+00
4932.3999       3.73228359E+00
4933.7998       3.75139141E+00
4935.2002       3.74803162E+00
4936.6001       3.74456692E+00
4938.0000       3.73942280E+00
4939.3999       3.73658752E+00
4940.7998       3.74824142E+00
4942.2002       3.76839924E+00
4943.6001       3.76871395E+00
4945.0000       3.76461983E+00
4946.3999       3.77354336E+00
4947.7998       3.79296589E+00
4949.2002       3.79464531E+00
4950.6001       3.78498650E+00
4952.0000       3.77616787E+00
4953.3999       3.73207378E+00
4954.7998       3.66687679E+00
4956.2002       3.61312294E+00
4957.6001       3.62204742E+00
4959.0000       3.65753269E+00
4960.3999       3.65784740E+00
4961.7998       3.64062977E+00
4963.2002       3.64041996E+00
4964.6001       3.67223072E+00
4966.0000       3.68367481E+00
4967.3999       3.66866112E+00
4968.7998       3.66687679E+00
4970.2002       3.68178463E+00
4971.6001       3.70372677E+00
4973.0000       3.71895027E+00
4974.3999       3.71548557E+00
4975.7998       3.69427872E+00
4977.2002       3.67580032E+00
4978.6001       3.66351700E+00
4980.0000       3.62855625E+00
4981.3999       3.59202099E+00
4982.7998       3.59601021E+00
4984.2002       3.63086605E+00
4985.6001       3.67202091E+00
4987.0000       3.67979050E+00
4988.3999       3.64493465E+00
4989.7998       3.61049843E+00
4991.2002       3.62456703E+00
4992.6001       3.66057777E+00
4994.0000       3.66530228E+00
4995.3999       3.67128563E+00
4996.7998       3.66152191E+00
4998.2002       3.62015724E+00
4999.6001       3.58257198E+00
5001.0000       3.58918667E+00
5002.3999       3.60808372E+00
5003.7998       3.60797882E+00
5005.2002       3.60724449E+00
5006.6001       3.60010529E+00
5008.0000       3.59454060E+00
5009.3999       3.60724449E+00
5010.7998       3.60083961E+00
5012.2002       3.56556416E+00
5013.6001       3.54708672E+00
5015.0000       3.56640434E+00
5016.3999       3.60766411E+00
5017.7998       3.64094448E+00
5019.2002       3.63454056E+00
5020.6001       3.60944843E+00
5022.0000       3.59443569E+00
5023.3999       3.59737492E+00
5024.7998       3.61039352E+00
5026.2002       3.62404251E+00
5027.6001       3.62656212E+00
5029.0000       3.62939644E+00
5030.3999       3.63895035E+00
5031.7998       3.63884544E+00
5033.2002       3.62162685E+00
5034.6001       3.60335922E+00
5036.0000       3.59601021E+00
5037.3999       3.57217884E+00
5038.7998       3.56147003E+00
5040.2002       3.56734943E+00
5041.6001       3.57354355E+00
5043.0000       3.59580040E+00
5044.3999       3.62330723E+00
5045.7998       3.64346504E+00
5047.2002       3.63726997E+00
5048.6001       3.60556412E+00
5050.0000       3.58960629E+00
5051.3999       3.59517097E+00
5052.7998       3.59023666E+00
5054.2002       3.57196808E+00
5055.6001       3.57606316E+00
5057.0000       3.60377979E+00
5058.3999       3.62572193E+00
5059.7998       3.63139153E+00
5061.2002       3.61081409E+00
5062.6001       3.57123375E+00
5064.0000       3.55170631E+00
5065.3999       3.56577396E+00
5066.7998       3.58803177E+00
5068.2002       3.58845139E+00
5069.6001       3.56965828E+00
5071.0000       3.56608963E+00
5072.3999       3.59391117E+00
5073.7998       3.61343861E+00
5075.2002       3.59548569E+00
5076.6001       3.56692886E+00
5078.0000       3.55905533E+00
5079.3999       3.56157494E+00
5080.7998       3.56062984E+00
5082.2002       3.57480335E+00
5083.6001       3.59065628E+00
5085.0000       3.59863472E+00
5086.3999       3.60000038E+00
5087.7998       3.59422588E+00
5089.2002       3.59748077E+00
5090.6001       3.60283470E+00
5092.0000       3.60955429E+00
5093.3999       3.60451412E+00
5094.7998       3.58530140E+00
5096.2002       3.59275627E+00
5097.6001       3.59317589E+00
5099.0000       3.56062984E+00
5100.3999       3.52818871E+00
5101.7998       3.52808380E+00
5103.2002       3.54131222E+00
5104.6001       3.54120731E+00
5106.0000       3.53459358E+00
5107.3999       3.54624653E+00
5108.7998       3.56493473E+00
5110.2002       3.56440926E+00
5111.6001       3.56451416E+00
5113.0000       3.57921219E+00
5114.3999       3.60220432E+00
5115.7998       3.61627293E+00
5117.2002       3.60671902E+00
5118.6001       3.58698177E+00
5120.0000       3.57427788E+00
5121.3999       3.55244064E+00
5122.7998       3.52766418E+00
5124.2002       3.52871418E+00
5125.6001       3.53448772E+00
5127.0000       3.53270340E+00
5128.3999       3.54719162E+00
5129.7998       3.57700825E+00
5131.2002       3.59800529E+00
5132.6001       3.60923862E+00
5134.0000       3.61060333E+00
5135.3999       3.61049843E+00
5136.7998       3.61448860E+00
5138.2002       3.60913372E+00
5139.6001       3.61774254E+00
5141.0000       3.62078762E+00
5142.3999       3.59443569E+00
5143.7998       3.56671906E+00
5145.2002       3.57753277E+00
5146.6001       3.59559059E+00
5148.0000       3.59118080E+00
5149.3999       3.56608963E+00
5150.7998       3.54341221E+00
5152.2002       3.52188969E+00
5153.6001       3.53511810E+00
5155.0000       3.58215237E+00
5156.3999       3.63181114E+00
5157.7998       3.65942287E+00
5159.2002       3.66351700E+00
5160.6001       3.65648270E+00
5162.0000       3.63695526E+00
5163.3999       3.59401608E+00
5164.7998       3.53091812E+00
5166.2002       3.48272991E+00
5167.6001       3.46131229E+00
5169.0000       3.43989468E+00
5170.3999       3.41354370E+00
5171.7998       3.41385841E+00
5173.2002       3.44997406E+00
5174.6001       3.48598385E+00
5176.0000       3.49910736E+00
5177.3999       3.49417305E+00
5178.7998       3.48209953E+00
5180.2002       3.46299171E+00
5181.6001       3.45532799E+00
5183.0000       3.48598385E+00
5184.3999       3.55128574E+00
5185.7998       3.61637783E+00
5187.2002       3.64451408E+00
5188.6001       3.64272976E+00
5190.0000       3.62477684E+00
5191.3999       3.60545921E+00
5192.7998       3.62477684E+00
5194.2002       3.66393661E+00
5195.6001       3.67559052E+00
5197.0000       3.66834641E+00
5198.3999       3.65679741E+00
5199.7998       3.63443565E+00
5201.2002       3.58267689E+00
5202.6001       3.51034164E+00
5204.0000       3.45595837E+00
5205.3999       3.42950153E+00
5206.7998       3.43086624E+00
5208.2002       3.47023582E+00
5209.6001       3.55811024E+00
5211.0000       3.66120720E+00
5212.3999       3.72755909E+00
5213.7998       3.75128651E+00
5215.2002       3.76671886E+00
5216.6001       3.79485607E+00
5218.0000       3.80724430E+00
5219.3999       3.80860901E+00
5220.7998       3.79957962E+00
5222.2002       3.77133846E+00
5223.6001       3.72661400E+00
5225.0000       3.71874046E+00
5226.3999       3.74624634E+00
5227.7998       3.77480316E+00
5229.2002       3.80115509E+00
5230.6001       3.81396294E+00
5232.0000       3.82257175E+00
5233.3999       3.83548546E+00
5234.7998       3.85228348E+00
5236.2002       3.86624718E+00
5237.6001       3.85973740E+00
5239.0000       3.84367466E+00
5240.3999       3.84356976E+00
5241.7998       3.86015701E+00
5243.2002       3.84230995E+00
5244.6001       3.79895020E+00
5246.0000       3.77606297E+00
5247.3999       3.78414726E+00
5248.7998       3.79097080E+00
5250.2002       3.79695511E+00
5251.6001       3.81207371E+00
5253.0000       3.83191586E+00
5254.3999       3.84976387E+00
5255.7998       3.84986877E+00
5257.2002       3.83265114E+00
5258.6001       3.80010509E+00
5260.0000       3.74614143E+00
5261.3999       3.69196892E+00
5262.7998       3.65900230E+00
5264.2002       3.65249348E+00
5265.6001       3.65784740E+00
5267.0000       3.64566898E+00
5268.3999       3.63821507E+00
5269.7998       3.68409443E+00
5271.2002       3.75895023E+00
5272.6001       3.79800510E+00
5274.0000       3.80955410E+00
5275.3999       3.83170605E+00
5276.7998       3.85679817E+00
5278.2002       3.85039330E+00
5279.6001       3.82992172E+00
5281.0000       3.81847763E+00
5282.3999       3.82519722E+00
5283.7998       3.85364819E+00
5285.2002       3.88514423E+00
5286.6001       3.90225697E+00
5288.0000       3.89144325E+00
5289.3999       3.86813641E+00
5290.7998       3.87076092E+00
5292.2002       3.86971092E+00
5293.6001       3.83086586E+00
5295.0000       3.76535416E+00
5296.3999       3.73837280E+00
5297.7998       3.76755905E+00
5299.2002       3.82372665E+00
5300.6001       3.87548542E+00
5302.0000       3.90981674E+00
5303.3999       3.89984226E+00
5304.7998       3.87307072E+00
5306.2002       3.86824131E+00
5307.6001       3.87821484E+00
5309.0000       3.89343834E+00
5310.3999       3.90131187E+00
5311.7998       3.90278244E+00
5313.2002       3.90792656E+00
5314.6001       3.91128635E+00
5316.0000       3.89921284E+00
5317.3999       3.88724422E+00
5318.7998       3.88787365E+00
5320.2002       3.87884521E+00
5321.6001       3.85196877E+00
5323.0000       3.82582664E+00
5324.3999       3.79380608E+00
5325.7998       3.72346497E+00
5327.2002       3.69721794E+00
5328.6001       3.74509144E+00
5330.0000       3.80241489E+00
5331.3999       3.84535408E+00
5332.7998       3.86866188E+00
5334.2002       3.86834621E+00
5335.6001       3.84871387E+00
5337.0000       3.82383156E+00
5338.3999       3.81868744E+00
5339.7998       3.83727074E+00
5341.2002       3.85333347E+00
5342.6001       3.85186386E+00
5344.0000       3.83853054E+00
5345.3999       3.82708645E+00
5346.7998       3.83475113E+00
5348.2002       3.87097073E+00
5349.6001       3.90866184E+00
5351.0000       3.92167950E+00
5352.3999       3.92230988E+00
5353.7998       3.93910789E+00
5355.2002       3.96041965E+00
5356.6001       3.96934414E+00
5358.0000       3.96367455E+00
5359.3999       3.93721771E+00
5360.7998       3.92283440E+00
5362.2002       3.92398930E+00
5363.6001       3.92325497E+00
5365.0000       3.91905499E+00
5366.3999       3.90278244E+00
5367.7998       3.86005211E+00
5369.2002       3.80472469E+00
5370.6001       3.81711292E+00
5372.0000       3.87653542E+00
5373.3999       3.93522263E+00
5374.7998       3.96514416E+00
5376.2002       3.96944904E+00
5377.6001       3.98803139E+00
5379.0000       3.98981667E+00
5380.3999       3.96220493E+00
5381.7998       3.94204712E+00
5383.2002       3.94971085E+00
5384.6001       3.97837257E+00
5386.0000       3.99454021E+00
5387.3999       3.97616768E+00
5388.7998       3.95086575E+00
5390.2002       3.93459320E+00
5391.6001       3.92031479E+00
5393.0000       3.89637756E+00
5394.3999       3.86887169E+00
5395.7998       3.87170601E+00
5397.2002       3.90813637E+00
5398.6001       3.94330692E+00
5400.0000       3.95874023E+00
5401.3999       3.92808437E+00
5402.7998       3.86929131E+00
5404.2002       3.84293938E+00
5405.6001       3.85837269E+00
5407.0000       3.86215210E+00
5408.3999       3.84776878E+00
5409.7998       3.87727070E+00
5411.2002       3.94614220E+00
5412.6001       3.99223137E+00
5414.0000       3.99947548E+00
5415.3999       4.00041962E+00
5416.7998       4.00409412E+00
5418.2002       3.99632549E+00
5419.6001       3.97700787E+00
5421.0000       3.97690296E+00
5422.3999       3.98782158E+00
5423.7998       4.00251961E+00
5425.2002       4.00199509E+00
5426.6001       3.93469810E+00
5428.0000       3.87685013E+00
5429.3999       3.87664032E+00
5430.7998       3.89112854E+00
5432.2002       3.89637756E+00
5433.6001       3.90635204E+00
5435.0000       3.93385792E+00
5436.3999       3.96031475E+00
5437.7998       3.98288727E+00
5439.2002       4.00209999E+00
5440.6001       4.01154900E+00
5442.0000       3.99349117E+00
5443.3999       3.93207359E+00
5444.7998       3.86435699E+00
5446.2002       3.83181095E+00
5447.6001       3.84640408E+00
5449.0000       3.86519718E+00
5450.3999       3.86551189E+00
5451.7998       3.85291290E+00
5453.2002       3.83947468E+00
5454.6001       3.83506584E+00
5456.0000       3.86309719E+00
5457.3999       3.90267754E+00
5458.7998       3.91086578E+00
5460.2002       3.90068245E+00
5461.6001       3.89406776E+00
5463.0000       3.90488148E+00
5464.3999       3.93028831E+00
5465.7998       3.94813633E+00
5467.2002       3.94267750E+00
5468.6001       3.93270302E+00
5470.0000       3.93595791E+00
5471.3999       3.93112850E+00
5472.7998       3.92062950E+00
5474.2002       3.91653538E+00
5475.6001       3.91296577E+00
5477.0000       3.91895008E+00
5478.3999       3.93312359E+00
5479.7998       3.93994713E+00
5481.2002       3.94488144E+00
5482.6001       3.95695496E+00
5484.0000       3.96671867E+00
5485.3999       3.96535397E+00
5486.7998       3.96062946E+00
5488.2002       3.97396278E+00
5489.6001       4.00000000E+00
5491.0000       4.00766373E+00
5492.3999       3.99443531E+00
5493.7998       3.96587944E+00
5495.2002       3.93910789E+00
5496.6001       3.92440987E+00
5498.0000       3.91244125E+00
5499.3999       3.90246677E+00
5500.7998       3.90540695E+00
5502.2002       3.91737556E+00
5503.6001       3.91191578E+00
5505.0000       3.91590595E+00
5506.3999       3.94393730E+00
5507.7998       3.96178436E+00
5509.2002       3.93648338E+00
5510.6001       3.89364815E+00
5512.0000       3.86593151E+00
5513.3999       3.87307072E+00
5514.7998       3.91118145E+00
5516.2002       3.95034122E+00
5517.6001       3.97249317E+00
5519.0000       3.98257256E+00
5520.3999       3.99968529E+00
5521.7998       4.01112843E+00
5523.2002       4.01081371E+00
5524.6001       3.99937057E+00
5526.0000       3.97490788E+00
5527.3999       3.96619415E+00
5528.7998       3.97837257E+00
5530.2002       3.99212646E+00
5531.6001       3.99569511E+00
5533.0000       3.99559021E+00
5534.3999       4.00115490E+00
5535.7998       4.00755882E+00
5537.2002       4.00189018E+00
5538.6001       4.00388432E+00
5540.0000       4.01763821E+00
5541.3999       4.02614212E+00
5542.7998       4.01910782E+00
5544.2002       4.00818920E+00
5545.6001       4.00566959E+00
5547.0000       4.01196861E+00
5548.3999       4.02834606E+00
5549.7998       4.04356956E+00
5551.2002       4.04839897E+00
5552.6001       4.04084015E+00
5554.0000       4.01585293E+00
5555.3999       4.00000000E+00
5556.7998       4.01648331E+00
5558.2002       4.03789997E+00
5559.6001       4.03684998E+00
5561.0000       4.01091862E+00
5562.3999       3.98603630E+00
5563.7998       3.97879219E+00
5565.2002       3.97028828E+00
5566.6001       3.95790005E+00
5568.0000       3.95905495E+00
5569.3999       3.97595787E+00
5570.7998       3.98561668E+00
5572.2002       3.98530197E+00
5573.6001       3.99706078E+00
5575.0000       4.00724411E+00
5576.3999       4.02288723E+00
5577.7998       4.04650879E+00
5579.2002       4.05091858E+00
5580.6001       4.00503922E+00
5582.0000       3.98057747E+00
5583.3999       3.98572159E+00
5584.7998       3.96262455E+00
5586.2002       3.91674519E+00
5587.6001       3.87936974E+00
5589.0000       3.88031483E+00
5590.3999       3.91443539E+00
5591.7998       3.92356968E+00
5593.2002       3.91275597E+00
5594.6001       3.89658833E+00
5596.0000       3.88251972E+00
5597.3999       3.86803150E+00
5598.7998       3.87128639E+00
5600.2002       3.88860893E+00
5601.6001       3.91002655E+00
5603.0000       3.92692947E+00
5604.3999       3.94624710E+00
5605.7998       3.96808434E+00
5607.2002       3.98803139E+00
5608.6001       4.01175880E+00
5610.0000       4.02582645E+00
5611.3999       4.01879311E+00
5612.7998       3.98845100E+00
5614.2002       3.94404221E+00
5615.6001       3.92293930E+00
5617.0000       3.92629910E+00
5618.3999       3.93091869E+00
5619.7998       3.94593143E+00
5621.2002       3.97469807E+00
5622.6001       3.99485588E+00
5624.0000       4.00335979E+00
5625.3999       4.00766373E+00
5626.7998       4.00367451E+00
5628.2002       3.98708630E+00
5629.6001       3.96514416E+00
5631.0000       3.97711277E+00
5632.3999       4.00818920E+00
5633.7998       4.02456665E+00
5635.2002       4.02540684E+00
5636.6001       4.00461960E+00
5638.0000       3.99307060E+00
5639.3999       4.00713921E+00
5640.7998       4.01301861E+00
5642.2002       4.00189018E+00
5643.6001       4.00251961E+00
5645.0000       4.01606274E+00
5646.3999       4.02561665E+00
5647.7998       4.02624702E+00
5649.2002       4.01826763E+00
5650.6001       4.02047253E+00
5652.0000       4.03958035E+00
5653.3999       4.05721760E+00
5654.7998       4.05511856E+00
5656.2002       4.03317547E+00
5657.6001       4.00493431E+00
5659.0000       4.01112843E+00
5660.3999       4.00692940E+00
5661.7998       3.99779510E+00
5663.2002       4.01238823E+00
5664.6001       4.04157448E+00
5666.0000       4.03832054E+00
5667.3999       4.01459312E+00
5668.7998       4.00356960E+00
5670.2002       4.00986862E+00
5671.6001       4.02078724E+00
5673.0000       4.03118134E+00
5674.3999       4.03979015E+00
5675.7998       4.05616760E+00
5677.2002       4.07506561E+00
5678.6001       4.08031464E+00
5680.0000       4.05301857E+00
5681.3999       4.01301861E+00
5682.7998       4.02351665E+00
5684.2002       4.05826759E+00
5685.6001       4.05091858E+00
5687.0000       4.00787354E+00
5688.3999       3.99895000E+00
5689.7998       4.03233624E+00
5691.2002       4.07086563E+00
5692.6001       4.09291363E+00
5694.0000       4.08871365E+00
5695.3999       4.06666660E+00
5696.7998       4.04734898E+00
5698.2002       4.04839897E+00
5699.6001       4.05301857E+00
5701.0000       4.04619408E+00
5702.3999       4.03548527E+00
5703.7998       4.03359604E+00
5705.2002       4.05091858E+00
5706.6001       4.06666660E+00
5708.0000       4.05406857E+00
5709.3999       4.02698135E+00
5710.7998       4.02939606E+00
5712.2002       4.04640388E+00
5713.6001       4.06456661E+00
5715.0000       4.07191563E+00
5716.3999       4.06351662E+00
5717.7998       4.08031464E+00
5719.2002       4.10866165E+00
5720.6001       4.12230968E+00
5722.0000       4.10866165E+00
5723.3999       4.09711266E+00
5724.7998       4.07506561E+00
5726.2002       4.06246758E+00
5727.6001       4.07716560E+00
5729.0000       4.09081364E+00
5730.3999       4.08766365E+00
5731.7998       4.10131264E+00
5733.2002       4.12860870E+00
5734.6001       4.12755871E+00
5736.0000       4.12230968E+00
5737.3999       4.10551167E+00
5738.7998       4.08556461E+00
5740.2002       4.07926464E+00
5741.6001       4.09711266E+00
5743.0000       4.11391068E+00
5744.3999       4.12020969E+00
5745.7998       4.12230968E+00
5747.2002       4.12545967E+00
5748.6001       4.14225769E+00
5750.0000       4.15695572E+00
5751.3999       4.14540672E+00
5752.7998       4.12650871E+00
5754.2002       4.13070869E+00
5755.6001       4.15065575E+00
5757.0000       4.15485573E+00
5758.3999       4.13595772E+00
5759.7998       4.10551167E+00
5761.2002       4.07296562E+00
5762.6001       4.07926464E+00
5764.0000       4.12755871E+00
5765.3999       4.16115475E+00
5766.7998       4.15905476E+00
5768.2002       4.14330673E+00
5769.6001       4.13385868E+00
5771.0000       4.12860870E+00
5772.3999       4.12020969E+00
5773.7998       4.11391068E+00
5775.2002       4.11706066E+00
5776.6001       4.12230968E+00
5778.0000       4.12860870E+00
5779.3999       4.13490772E+00
5780.7998       4.13280869E+00
5782.2002       4.11496067E+00
5783.6001       4.10446167E+00
5785.0000       4.11286068E+00
5786.3999       4.12335968E+00
5787.7998       4.11181068E+00
5789.2002       4.09396362E+00
5790.6001       4.09921265E+00
5792.0000       4.12965870E+00
5793.3999       4.15590572E+00
5794.7998       4.16010475E+00
5796.2002       4.14855671E+00
5797.6001       4.15065575E+00
5799.0000       4.16640377E+00
5800.3999       4.18110275E+00
5801.7998       4.18635178E+00
5803.2002       4.17690277E+00
5804.6001       4.16220474E+00
5806.0000       4.15695572E+00
5807.3999       4.16325474E+00
5808.7998       4.16955376E+00
5810.2002       4.16955376E+00
5811.6001       4.14855671E+00
5813.0000       4.12965870E+00
5814.3999       4.13595772E+00
5815.7998       4.13490772E+00
5817.2002       4.13385868E+00
5818.6001       4.13805771E+00
5820.0000       4.14120770E+00
5821.3999       4.14750671E+00
5822.7998       4.15695572E+00
5824.2002       4.16745377E+00
5825.6001       4.16115475E+00
5827.0000       4.14855671E+00
5828.3999       4.15485573E+00
5829.7998       4.16010475E+00
5831.2002       4.16325474E+00
5832.6001       4.16955376E+00
5834.0000       4.16430473E+00
5835.3999       4.15590572E+00
5836.7998       4.14855671E+00
5838.2002       4.14645672E+00
5839.6001       4.15695572E+00
5841.0000       4.15905476E+00
5842.3999       4.14645672E+00
5843.7998       4.14330673E+00
5845.2002       4.14435673E+00
5846.6001       4.12860870E+00
5848.0000       4.11915970E+00
5849.3999       4.10761166E+00
5850.7998       4.09816265E+00
5852.2002       4.09816265E+00
5853.6001       4.06981659E+00
5855.0000       4.01417351E+00
5856.3999       4.01784801E+00
5857.7998       4.07086563E+00
5859.2002       4.10446167E+00
5860.6001       4.10026264E+00
5862.0000       4.08031464E+00
5863.3999       4.05826759E+00
5864.7998       4.04640388E+00
5866.2002       4.04986858E+00
5867.6001       4.05721760E+00
5869.0000       4.04503918E+00
5870.3999       4.03653526E+00
5871.7998       4.04608917E+00
5873.2002       4.04724407E+00
5874.6001       4.02582645E+00
5876.0000       3.99454021E+00
5877.3999       3.96020985E+00
5878.7998       3.92598438E+00
5880.2002       3.88640404E+00
5881.6001       3.82519722E+00
5883.0000       3.73721790E+00
5884.3999       3.63831997E+00
5885.7998       3.51989460E+00
5887.2002       3.41196823E+00
5888.6001       3.38708687E+00
5890.0000       3.42698193E+00
5891.3999       3.45007896E+00
5892.7998       3.42435741E+00
5894.2002       3.41543293E+00
5895.6001       3.48755932E+00
5897.0000       3.60231018E+00
5898.3999       3.71023655E+00
5899.7998       3.79979038E+00
5901.2002       3.86330700E+00
5902.6001       3.89837265E+00
5904.0000       3.92335987E+00
5905.3999       3.94383240E+00
5906.7998       3.96944904E+00
5908.2002       3.99097157E+00
5909.6001       3.98656178E+00
5911.0000       3.98141766E+00
5912.3999       3.99475098E+00
5913.7998       4.02110291E+00
5915.2002       4.03527546E+00
5916.6001       4.03275585E+00
5918.0000       4.02593136E+00
5919.3999       4.02131271E+00
5920.7998       4.03317547E+00
5922.2002       4.04755878E+00
5923.6001       4.03023624E+00
5925.0000       4.01238823E+00
5926.3999       4.03548527E+00
5927.7998       4.06981659E+00
5929.2002       4.06666660E+00
5930.6001       4.06036758E+00
5932.0000       4.07611561E+00
5933.3999       4.10551167E+00
5934.7998       4.11601067E+00
5936.2002       4.09186363E+00
5937.6001       4.07086563E+00
5939.0000       4.05511856E+00
5940.3999       4.07611561E+00
5941.7998       4.09606266E+00
5943.2002       4.08241463E+00
5944.6001       4.09921265E+00
5946.0000       4.10236263E+00
5947.3999       4.09606266E+00
5948.7998       4.08451462E+00
5950.2002       4.06351662E+00
5951.6001       4.06456661E+00
5953.0000       4.09396362E+00
5954.3999       4.10656166E+00
5955.7998       4.10131264E+00
5957.2002       4.10551167E+00
5958.6001       4.11811066E+00
5960.0000       4.10866165E+00
5961.3999       4.08871365E+00
5962.7998       4.07506561E+00
5964.2002       4.07506561E+00
5965.6001       4.07611561E+00
5967.0000       4.07086563E+00
5968.3999       4.07926464E+00
5969.7998       4.09186363E+00
5971.2002       4.10131264E+00
5972.6001       4.09501266E+00
5974.0000       4.06876659E+00
5975.3999       4.06981659E+00
5976.7998       4.08661461E+00
5978.2002       4.08346462E+00
5979.6001       4.08346462E+00
5981.0000       4.09501266E+00
5982.3999       4.10236263E+00
5983.7998       4.11181068E+00
5985.2002       4.11286068E+00
5986.6001       4.09606266E+00
5988.0000       4.10971165E+00
5989.3999       4.14960670E+00
5990.7998       4.18425179E+00
5992.2002       4.17585278E+00
5993.6001       4.14015770E+00
5995.0000       4.13595772E+00
5996.3999       4.14120770E+00
5997.7998       4.15170574E+00
5999.2002       4.14540672E+00
6000.6001       4.11076164E+00
6002.0000       4.11391068E+00
6003.3999       4.12125969E+00
6004.7998       4.11181068E+00
6006.2002       4.10866165E+00
6007.6001       4.12545967E+00
6009.0000       4.14540672E+00
6010.3999       4.14960670E+00
6011.7998       4.14330673E+00
6013.2002       4.13490772E+00
6014.6001       4.12860870E+00
6016.0000       4.12965870E+00
6017.3999       4.11181068E+00
6018.7998       4.10131264E+00
6020.2002       4.10446167E+00
6021.6001       4.11915970E+00
6023.0000       4.13700771E+00
6024.3999       4.16010475E+00
6025.7998       4.17480278E+00
6027.2002       4.16220474E+00
6028.6001       4.14645672E+00
6030.0000       4.15800476E+00
6031.3999       4.18845177E+00
6032.7998       4.18635178E+00
6034.2002       4.16850376E+00
6035.6001       4.15170574E+00
6037.0000       4.14120770E+00
6038.3999       4.15485573E+00
6039.7998       4.17165375E+00
6041.2002       4.18110275E+00
6042.6001       4.19160080E+00
6044.0000       4.20314980E+00
6045.3999       4.21049881E+00
6046.7998       4.21259880E+00
6048.2002       4.21154881E+00
6049.6001       4.23464584E+00
6051.0000       4.20629883E+00
6052.3999       4.19475079E+00
6053.7998       4.18950176E+00
6055.2002       4.19685078E+00
6056.6001       4.21049881E+00
6058.0000       4.22309685E+00
6059.3999       4.21889782E+00
6060.7998       4.21784782E+00
6062.2002       4.22204685E+00
6063.6001       4.22099781E+00
6065.0000       4.20734882E+00
6066.3999       4.20524979E+00
6067.7998       4.21364784E+00
6069.2002       4.22309685E+00
6070.6001       4.23359585E+00
6072.0000       4.24304485E+00
6073.3999       4.25144386E+00
6074.7998       4.24304485E+00
6076.2002       4.21994781E+00
6077.6001       4.19999981E+00
6079.0000       4.18320179E+00
6080.3999       4.17795277E+00
6081.7998       4.18950176E+00
6083.2002       4.18635178E+00
6084.6001       4.21259880E+00
6086.0000       4.23044586E+00
6087.3999       4.23149586E+00
6088.7998       4.21364784E+00
6090.2002       4.20524979E+00
6091.6001       4.25879288E+00
6093.0000       4.26404190E+00
6094.3999       4.23779488E+00
6095.7998       4.19789982E+00
6097.2002       4.15485573E+00
6098.6001       4.08766365E+00
6100.0000       4.04294014E+00
6101.3999       4.06351662E+00
6102.7998       4.12335968E+00
6104.2002       4.15800476E+00
6105.6001       4.18215179E+00
6107.0000       4.19894981E+00
6108.3999       4.20524979E+00
6109.7998       4.21259880E+00
6111.2002       4.22414684E+00
6112.6001       4.25459290E+00
6114.0000       4.25984287E+00
6115.3999       4.23254585E+00
6116.7998       4.17585278E+00
6118.2002       4.08451462E+00
6119.6001       4.00965881E+00
6121.0000       3.98719120E+00
6122.3999       4.04178429E+00
6123.7998       4.13805771E+00
6125.2002       4.19265079E+00
6126.6001       4.21259880E+00
6128.0000       4.23044586E+00
6129.3999       4.22834682E+00
6130.7998       4.20629883E+00
6132.2002       4.19370079E+00
6133.6001       4.18005276E+00
6135.0000       4.13280869E+00
6136.3999       4.11496067E+00
6137.7998       4.14540672E+00
6139.2002       4.19475079E+00
6140.6001       4.21994781E+00
6142.0000       4.20104980E+00
6143.3999       4.17900276E+00
6144.7998       4.18425179E+00
6146.2002       4.17480278E+00
6147.6001       4.16220474E+00
6149.0000       4.17375374E+00
6150.3999       4.19999981E+00
6151.7998       4.22309685E+00
6153.2002       4.20524979E+00
6154.6001       4.14960670E+00
6156.0000       4.09501266E+00
6157.3999       4.02666664E+00
6158.7998       3.91065598E+00
6160.2002       3.80000019E+00
6161.6001       3.80755901E+00
6163.0000       3.89301872E+00
6164.3999       3.93637753E+00
6165.7998       3.93585300E+00
6167.2002       3.94057751E+00
6168.6001       3.96545982E+00
6170.0000       4.00157452E+00
6171.3999       4.02036762E+00
6172.7998       4.04020977E+00
6174.2002       4.07716560E+00
6175.6001       4.09921265E+00
6177.0000       4.11811066E+00
6178.3999       4.12965870E+00
6179.7998       4.13070869E+00
6181.2002       4.11496067E+00
6182.6001       4.06456661E+00
6184.0000       4.03653526E+00
6185.3999       4.02813625E+00
6186.7998       4.01973724E+00
6188.2002       3.99779510E+00
6189.6001       3.97921276E+00
6191.0000       3.99874020E+00
6192.3999       4.02341175E+00
6193.7998       4.04661369E+00
6195.2002       4.03548527E+00
6196.6001       4.03496075E+00
6198.0000       4.04797935E+00
6199.3999       4.06981659E+00
6200.7998       4.08451462E+00
6202.2002       4.06876659E+00
6203.6001       4.08031464E+00
6205.0000       4.07401562E+00
6206.3999       4.06981659E+00
6207.7998       4.07296562E+00
6209.2002       4.05511856E+00
6210.6001       4.03811073E+00
6212.0000       3.99065590E+00
6213.3999       3.95601082E+00
6214.7998       3.96146965E+00
6216.2002       3.95989513E+00
6217.6001       3.94551182E+00
6219.0000       3.93952751E+00
6220.3999       3.94572163E+00
6221.7998       3.93868732E+00
6223.2002       3.92041969E+00
6224.6001       3.93070889E+00
6226.0000       3.94645691E+00
6227.3999       3.93154812E+00
6228.7998       3.90645695E+00
6230.2002       3.90099716E+00
6231.6001       3.93616772E+00
6233.0000       3.97816277E+00
6234.3999       3.96220493E+00
6235.7998       3.93984222E+00
6237.2002       3.93280792E+00
6238.6001       3.93963242E+00
6240.0000       3.94740200E+00
6241.3999       3.96766376E+00
6242.7998       3.99170589E+00
6244.2002       4.01385784E+00
6245.6001       4.01049900E+00
6247.0000       4.01595783E+00
6248.3999       4.02078724E+00
6249.7998       4.00587940E+00
6251.2002       4.01028824E+00
6252.6001       3.99937057E+00
6254.0000       3.98887157E+00
6255.3999       3.94435692E+00
6256.7998       3.92566967E+00
6258.2002       3.96902847E+00
6259.6001       4.02498722E+00
6261.0000       4.09501266E+00
6262.3999       4.04304504E+00
6263.7998       3.99926472E+00
6265.2002       4.01217842E+00
6266.6001       4.00934410E+00
6268.0000       4.02540684E+00
6269.3999       4.04556465E+00
6270.7998       4.04472446E+00
6272.2002       4.01438332E+00
6273.6001       3.99590588E+00
6275.0000       4.02225685E+00
6276.3999       4.03475094E+00
6277.7998       4.04294014E+00
6279.2002       4.03769016E+00
6280.6001       4.00430489E+00
6282.0000       4.02467155E+00
6283.3999       4.04430485E+00
6284.7998       4.08871365E+00
6286.2002       4.12545967E+00
6287.6001       4.13490772E+00
6289.0000       4.13175869E+00
6290.3999       4.07926464E+00
6291.7998       4.07716560E+00
6293.2002       4.05931759E+00
6294.6001       4.05511856E+00
6296.0000       4.08241463E+00
6297.3999       4.10341167E+00
6298.7998       4.11391068E+00
6300.2002       4.10551167E+00
6301.6001       4.09816265E+00
6303.0000       4.10971165E+00
6304.3999       4.12755871E+00
6305.7998       4.13910770E+00
6307.2002       4.15695572E+00
6308.6001       4.16220474E+00
6310.0000       4.16115475E+00
6311.3999       4.16430473E+00
6312.7998       4.16325474E+00
6314.2002       4.14330673E+00
6315.6001       4.14120770E+00
6317.0000       4.16535473E+00
6318.3999       4.18845177E+00
6319.7998       4.19475079E+00
6321.2002       4.18425179E+00
6322.6001       4.16955376E+00
6324.0000       4.16850376E+00
6325.3999       4.18635178E+00
6326.7998       4.19580078E+00
6328.2002       4.19580078E+00
6329.6001       4.20314980E+00
6331.0000       4.21049881E+00
6332.3999       4.18740177E+00
6333.7998       4.17900276E+00
6335.2002       4.18950176E+00
6336.6001       4.20944881E+00
6338.0000       4.22939682E+00
6339.3999       4.23674583E+00
6340.7998       4.21994781E+00
6342.2002       4.20944881E+00
6343.6001       4.23569584E+00
6345.0000       4.25669289E+00
6346.3999       4.26824188E+00
6347.7998       4.29868793E+00
6349.2002       4.27244091E+00
6350.6001       4.24829388E+00
6352.0000       4.23359585E+00
6353.3999       4.21784782E+00
6354.7998       4.18530178E+00
6356.2002       4.14855671E+00
6357.6001       4.14225769E+00
6359.0000       4.13805771E+00
6360.3999       4.14015770E+00
6361.7998       4.16220474E+00
6363.2002       4.18530178E+00
6364.6001       4.17690277E+00
6366.0000       4.15695572E+00
6367.3999       4.15170574E+00
6368.7998       4.14855671E+00
6370.2002       4.15170574E+00
6371.6001       4.15695572E+00
6373.0000       4.14225769E+00
6374.3999       4.10971165E+00
6375.7998       4.08451462E+00
6377.2002       4.04923916E+00
6378.6001       4.00692940E+00
6380.0000       3.99706078E+00
6381.3999       4.02131271E+00
6382.7998       4.03653526E+00
6384.2002       4.02845192E+00
6385.6001       4.01868820E+00
6387.0000       4.03821564E+00
6388.3999       4.08136463E+00
6389.7998       4.08766365E+00
6391.2002       4.10551167E+00
6392.6001       4.12965870E+00
6394.0000       4.15800476E+00
6395.3999       4.17900276E+00
6396.7998       4.14750671E+00
6398.2002       4.15170574E+00
6399.6001       4.17270374E+00
6401.0000       4.18530178E+00
6402.3999       4.18005276E+00
6403.7998       4.19894981E+00
6405.2002       4.21574783E+00
6406.6001       4.21784782E+00
6408.0000       4.21889782E+00
6409.3999       4.21889782E+00
6410.7998       4.23044586E+00
6412.2002       4.24724388E+00
6413.6001       4.24934387E+00
6415.0000       4.23044586E+00
6416.3999       4.21469784E+00
6417.7998       4.20839882E+00
6419.2002       4.21049881E+00
6420.6001       4.22099781E+00
6422.0000       4.23569584E+00
6423.3999       4.24304485E+00
6424.7998       4.23569584E+00
6426.2002       4.22519684E+00
6427.6001       4.20734882E+00
6429.0000       4.20209980E+00
6430.3999       4.22624683E+00
6431.7998       4.25564289E+00
6433.2002       4.26089287E+00
6434.6001       4.22204685E+00
6436.0000       4.15590572E+00
6437.3999       4.12650871E+00
6438.7998       4.17270374E+00
6440.2002       4.25039387E+00
6441.6001       4.29553795E+00
6443.0000       4.31758499E+00
6444.3999       4.32598400E+00
6445.7998       4.28503895E+00
6447.2002       4.22624683E+00
6448.6001       4.22204685E+00
6450.0000       4.23989487E+00
6451.3999       4.27454090E+00
6452.7998       4.27978992E+00
6454.2002       4.27873993E+00
6455.6001       4.28818893E+00
6457.0000       4.27454090E+00
6458.3999       4.22624683E+00
6459.7998       4.16115475E+00
6461.2002       4.15800476E+00
6462.6001       4.20419979E+00
6464.0000       4.25144386E+00
6465.3999       4.29763794E+00
6466.7998       4.34173203E+00
6468.2002       4.32808399E+00
6469.6001       4.29973793E+00
6471.0000       4.31548595E+00
6472.3999       4.33543301E+00
6473.7998       4.32598400E+00
6475.2002       4.31548595E+00
6476.6001       4.34173203E+00
6478.0000       4.35118103E+00
6479.3999       4.34803200E+00
6480.7998       4.36168003E+00
6482.2002       4.33648300E+00
6483.6001       4.32073498E+00
6485.0000       4.31443596E+00
6486.3999       4.30498695E+00
6487.7998       4.30498695E+00
6489.2002       4.26194191E+00
6490.6001       4.18425179E+00
6492.0000       4.13595772E+00
6493.3999       4.11706066E+00
6494.7998       4.17060375E+00
6496.2002       4.21049881E+00
6497.6001       4.23569584E+00
6499.0000       4.28293991E+00
6500.3999       4.34278202E+00
6501.7998       4.34068203E+00
6503.2002       4.33753300E+00
6504.6001       4.33333302E+00
6506.0000       4.33438301E+00
6507.3999       4.35853004E+00
6508.7998       4.35223103E+00
6510.2002       4.34173203E+00
6511.6001       4.34593201E+00
6513.0000       4.36273003E+00
6514.3999       4.37427807E+00
6515.7998       4.37112808E+00
6517.2002       4.37217808E+00
6518.6001       4.39632511E+00
6520.0000       4.40052509E+00
6521.3999       4.40052509E+00
6522.7998       4.41942215E+00
6524.2002       4.42992115E+00
6525.6001       4.42887115E+00
6527.0000       4.41312313E+00
6528.3999       4.40682411E+00
6529.7998       4.39842510E+00
6531.2002       4.39107609E+00
6532.6001       4.39422607E+00
6534.0000       4.40997410E+00
6535.3999       4.40787411E+00
6536.7998       4.39737511E+00
6538.2002       4.39947510E+00
6539.6001       4.42362213E+00
6541.0000       4.43937016E+00
6542.3999       4.41627312E+00
6543.7998       4.41102409E+00
6545.2002       4.42467213E+00
6546.6001       4.43307114E+00
6548.0000       4.41627312E+00
6549.3999       4.40052509E+00
6550.7998       4.38897610E+00
6552.2002       4.35853004E+00
6553.6001       4.35853004E+00
6555.0000       4.36273003E+00
6556.3999       4.35748005E+00
6557.7998       4.35223103E+00
6559.2002       4.33858299E+00
6560.6001       4.31233597E+00
6562.0000       4.32808399E+00
6563.3999       4.36797905E+00
6564.7998       4.38792610E+00
6566.2002       4.38687706E+00
6567.6001       4.36692905E+00
6569.0000       4.33018398E+00
6570.3999       4.29553795E+00
6571.7998       4.31023598E+00
6573.2002       4.34908104E+00
6574.6001       4.37532806E+00
6576.0000       4.40577412E+00
6577.3999       4.41312313E+00
6578.7998       4.39422607E+00
6580.2002       4.38792610E+00
6581.6001       4.41207314E+00
6583.0000       4.41207314E+00
6584.3999       4.39527512E+00
6585.7998       4.38267708E+00
6587.2002       4.40052509E+00
6588.6001       4.37427807E+00
6590.0000       4.34068203E+00
6591.3999       4.33753300E+00
6592.7998       4.34593201E+00
6594.2002       4.37742805E+00
6595.6001       4.37847710E+00
6597.0000       4.37322807E+00
6598.3999       4.41522312E+00
6599.7998       4.43412018E+00
6601.2002       4.41417313E+00
6602.6001       4.38582706E+00
6604.0000       4.37952805E+00
6605.3999       4.36797905E+00
6606.7998       4.36273003E+00
6608.2002       4.35958004E+00
6609.6001       4.37742805E+00
6611.0000       4.38057709E+00
6612.3999       4.38162708E+00
6613.7998       4.38057709E+00
6615.2002       4.37427807E+00
6616.6001       4.38687706E+00
6618.0000       4.37427807E+00
6619.3999       4.36168003E+00
6620.7998       4.37217808E+00
6622.2002       4.35328102E+00
6623.6001       4.35118103E+00
6625.0000       4.35433102E+00
6626.3999       4.32388496E+00
6627.7998       4.33123398E+00
6629.2002       4.34803200E+00
6630.6001       4.35223103E+00
6632.0000       4.34278202E+00
6633.3999       4.30498695E+00
6634.7998       4.30918598E+00
6636.2002       4.34173203E+00
6637.6001       4.33648300E+00
6639.0000       4.34173203E+00
6640.3999       4.33123398E+00
6641.7998       4.32178497E+00
6643.2002       4.34278202E+00
6644.6001       4.29973793E+00
6646.0000       4.27873993E+00
6647.3999       4.27139091E+00
6648.7998       4.28608894E+00
6650.2002       4.28818893E+00
6651.6001       4.28188992E+00
6653.0000       4.27873993E+00
6654.3999       4.29763794E+00
6655.7998       4.26929092E+00
6657.2002       4.25039387E+00
6658.6001       4.23884487E+00
6660.0000       4.22939682E+00
6661.3999       4.23149586E+00
6662.7998       4.22729683E+00
6664.2002       4.25039387E+00
6665.6001       4.28293991E+00
6667.0000       4.27873993E+00
6668.3999       4.27349091E+00
6669.7998       4.28293991E+00
6671.2002       4.28083992E+00
6672.6001       4.28608894E+00
6674.0000       4.25669289E+00
6675.3999       4.20629883E+00
6676.7998       4.20314980E+00
6678.2002       4.18635178E+00
6679.6001       4.18740177E+00
6681.0000       4.21154881E+00
6682.3999       4.21259880E+00
6683.7998       4.21154881E+00
6685.2002       4.22519684E+00
6686.6001       4.22309685E+00
6688.0000       4.20734882E+00
6689.3999       4.21364784E+00
6690.7998       4.22624683E+00
6692.2002       4.23044586E+00
6693.6001       4.19894981E+00
6695.0000       4.23464584E+00
6696.3999       4.21994781E+00
6697.7998       4.21154881E+00
6699.2002       4.23674583E+00
6700.6001       4.26299191E+00
6702.0000       4.27663994E+00
6703.3999       4.27454090E+00
6704.7998       4.25459290E+00
6706.2002       4.24829388E+00
6707.6001       4.22729683E+00
6709.0000       4.20314980E+00
6710.3999       4.19055080E+00
6711.7998       4.17270374E+00
6713.2002       4.12545967E+00
6714.6001       4.08031464E+00
6716.0000       4.07296562E+00
6717.3999       4.10761166E+00
6718.7998       4.12125969E+00
6720.2002       4.13385868E+00
6721.6001       4.16745377E+00
6723.0000       4.17060375E+00
6724.3999       4.18320179E+00
6725.7998       4.19894981E+00
6727.2002       4.16850376E+00
6728.6001       4.13910770E+00
6730.0000       4.13490772E+00
6731.3999       4.15170574E+00
6732.7998       4.16535473E+00
6734.2002       4.17270374E+00
6735.6001       4.16430473E+00
6737.0000       4.16955376E+00
6738.3999       4.17900276E+00
6739.7998       4.15695572E+00
6741.2002       4.13385868E+00
6742.6001       4.12125969E+00
6744.0000       4.12650871E+00
6745.3999       4.13385868E+00
6746.7998       4.13595772E+00
6748.2002       4.12755871E+00
6749.6001       4.10551167E+00
6751.0000       4.11915970E+00
6752.3999       4.13490772E+00
6753.7998       4.14855671E+00
6755.2002       4.16115475E+00
6756.6001       4.15695572E+00
6758.0000       4.14225769E+00
6759.3999       4.15380573E+00
6760.7998       4.17165375E+00
6762.2002       4.16535473E+00
6763.6001       4.15695572E+00
6765.0000       4.13385868E+00
6766.3999       4.10866165E+00
6767.7998       4.11181068E+00
6769.2002       4.10971165E+00
6770.6001       4.11286068E+00
6772.0000       4.13595772E+00
6773.3999       4.15800476E+00
6774.7998       4.14750671E+00
6776.2002       4.12860870E+00
6777.6001       4.13385868E+00
6779.0000       4.10656166E+00
6780.3999       4.07506561E+00
6781.7998       4.06561661E+00
6783.2002       4.07191563E+00
6784.6001       4.06456661E+00
6786.0000       4.06246758E+00
6787.3999       4.07821560E+00
6788.7998       4.10446167E+00
6790.2002       4.10866165E+00
6791.6001       4.10026264E+00
6793.0000       4.08871365E+00
6794.3999       4.06666660E+00
6795.7998       4.08031464E+00
6797.2002       4.08871365E+00
6798.6001       4.10236263E+00
6800.0000       4.11286068E+00
6801.3999       4.08766365E+00
6802.7998       4.06771660E+00
6804.2002       4.06141758E+00
6805.6001       4.06666660E+00
6807.0000       4.08031464E+00
6808.3999       4.08031464E+00
6809.7998       4.08031464E+00
6811.2002       4.08871365E+00
6812.6001       4.08136463E+00
6814.0000       4.06876659E+00
6815.3999       4.06666660E+00
6816.7998       4.05826759E+00
6818.2002       4.06246758E+00
6819.6001       4.06141758E+00
6821.0000       4.05406857E+00
6822.3999       4.05826759E+00
6823.7998       4.06141758E+00
6825.2002       4.06141758E+00
6826.6001       4.05511856E+00
6828.0000       4.04986858E+00
6829.3999       4.05301857E+00
6830.7998       4.05826759E+00
6832.2002       4.04640388E+00
6833.6001       4.03664017E+00
6835.0000       4.04230976E+00
6836.3999       4.04808426E+00
6837.7998       4.06036758E+00
6839.2002       4.05301857E+00
6840.6001       4.04314995E+00
6842.0000       4.03894997E+00
6843.3999       4.03055096E+00
6844.7998       4.00125980E+00
6846.2002       3.99590588E+00
6847.6001       3.98624706E+00
6849.0000       3.98477650E+00
6850.3999       3.99160099E+00
6851.7998       4.01312351E+00
6853.2002       4.01196861E+00
6854.6001       3.99023628E+00
6856.0000       3.98624706E+00
6857.3999       3.99265099E+00
6858.7998       4.00020981E+00
6860.2002       4.01774311E+00
6861.6001       4.02666664E+00
6863.0000       4.00965881E+00
6864.3999       3.97606277E+00
6865.7998       3.90215206E+00
6867.2002       3.80577469E+00
6868.6001       3.71643066E+00
6870.0000       3.68808365E+00
6871.3999       3.72650909E+00
6872.7998       3.77333355E+00
6874.2002       3.80640411E+00
6875.6001       3.83705997E+00
6877.0000       3.87433052E+00
6878.3999       3.90719128E+00
6879.7998       3.93753242E+00
6881.2002       3.94530201E+00
6882.6001       3.93438339E+00
6884.0000       3.91968536E+00
6885.3999       3.90110207E+00
6886.7998       3.89228344E+00
6888.2002       3.89501286E+00
6889.6001       3.91170597E+00
6891.0000       3.92734909E+00
6892.3999       3.92923927E+00
6893.7998       3.93196869E+00
6895.2002       3.94110203E+00
6896.6001       3.95097160E+00
6898.0000       3.93921280E+00
6899.3999       3.92934418E+00
6900.7998       3.96650887E+00
6902.2002       3.98761177E+00
6903.6001       4.01249313E+00
6905.0000       4.03727055E+00
6906.3999       4.03789997E+00
6907.7998       4.02635193E+00
6909.2002       4.03454018E+00
6910.6001       4.04545975E+00
6912.0000       4.04671955E+00
6913.3999       4.02992153E+00
6914.7998       4.00619411E+00
6916.2002       3.99748039E+00
6917.6001       4.01333332E+00
6919.0000       4.05511856E+00
6920.3999       4.09921265E+00
6921.7998       4.11391068E+00
6923.2002       4.12230968E+00
6924.6001       4.14225769E+00
6926.0000       4.17060375E+00
6927.3999       4.18005276E+00
6928.7998       4.15590572E+00
6930.2002       4.16010475E+00
6931.6001       4.16745377E+00
6933.0000       4.16115475E+00
6934.3999       4.15695572E+00
6935.7998       4.16850376E+00
6937.2002       4.18425179E+00
6938.6001       4.19370079E+00
6940.0000       4.19789982E+00
6941.3999       4.19999981E+00
6942.7998       4.22204685E+00
6944.2002       4.25249386E+00
6945.6001       4.27349091E+00
6947.0000       4.26404190E+00
6948.3999       4.25249386E+00
6949.7998       4.24199486E+00
6951.2002       4.23149586E+00
6952.6001       4.24724388E+00
6954.0000       4.25039387E+00
6955.3999       4.24409485E+00
6956.7998       4.24514389E+00
6958.2002       4.24724388E+00
6959.6001       4.25669289E+00
6961.0000       4.25669289E+00
6962.3999       4.23884487E+00
6963.7998       4.22309685E+00
6965.2002       4.21574783E+00
6966.6001       4.23149586E+00
6968.0000       4.24724388E+00
6969.3999       4.24619389E+00
6970.7998       4.25984287E+00
6972.2002       4.26719189E+00
6973.6001       4.24409485E+00
6975.0000       4.22309685E+00
6976.3999       4.21679783E+00
6977.7998       4.22309685E+00
6979.2002       4.23779488E+00
6980.6001       4.26614189E+00
6982.0000       4.29133892E+00
6983.3999       4.29973793E+00
6984.7998       4.29448795E+00
6986.2002       4.30288696E+00
6987.6001       4.27139091E+00
6989.0000       4.25984287E+00
6990.3999       4.26299191E+00
6991.7998       4.26089287E+00
6993.2002       4.27349091E+00
6994.6001       4.28713894E+00
6996.0000       4.29238892E+00
6997.3999       4.29028893E+00
6998.7998       4.27349091E+00
7000.2002       4.28398991E+00
7001.6001       4.30813694E+00
7003.0000       4.31863499E+00
7004.3999       4.29238892E+00
7005.7998       4.23989487E+00
7007.2002       4.23359585E+00
7008.6001       4.26719189E+00
7010.0000       4.31233597E+00
7011.3999       4.34488201E+00
7012.7998       4.34383202E+00
7014.2002       4.33543301E+00
7015.6001       4.33963299E+00
7017.0000       4.33648300E+00
7018.3999       4.35328102E+00
7019.7998       4.35118103E+00
7021.2002       4.32178497E+00
7022.6001       4.31338596E+00
7024.0000       4.32493401E+00
7025.3999       4.33858299E+00
7026.7998       4.33543301E+00
7028.2002       4.32913399E+00
7029.6001       4.32388496E+00
7031.0000       4.31443596E+00
7032.3999       4.30813694E+00
7033.7998       4.34593201E+00
7035.2002       4.36587906E+00
7036.6001       4.40157509E+00
7038.0000       4.43937016E+00
7039.3999       4.43097115E+00
7040.7998       4.40787411E+00
7042.2002       4.40157509E+00
7043.6001       4.40472412E+00
7045.0000       4.41837311E+00
7046.3999       4.44566917E+00
7047.7998       4.40682411E+00
7049.2002       4.40997410E+00
7050.6001       4.40472412E+00
7052.0000       4.35853004E+00
7053.3999       4.29028893E+00
7054.7998       4.30288696E+00
7056.2002       4.31443596E+00
7057.6001       4.30078697E+00
7059.0000       4.28818893E+00
7060.3999       4.25459290E+00
7061.7998       4.24724388E+00
7063.2002       4.24829388E+00
7064.6001       4.24304485E+00
7066.0000       4.25249386E+00
7067.3999       4.24514389E+00
7068.7998       4.23779488E+00
7070.2002       4.26089287E+00
7071.6001       4.29448795E+00
7073.0000       4.32178497E+00
7074.3999       4.33753300E+00
7075.7998       4.34803200E+00
7077.2002       4.35118103E+00
7078.6001       4.33438301E+00
7080.0000       4.31233597E+00
7081.3999       4.31968498E+00
7082.7998       4.33753300E+00
7084.2002       4.30183697E+00
7085.6001       4.24724388E+00
7087.0000       4.19999981E+00
7088.3999       4.18845177E+00
7089.7998       4.22204685E+00
7091.2002       4.22939682E+00
7092.6001       4.22519684E+00
7094.0000       4.22204685E+00
7095.3999       4.23464584E+00
7096.7998       4.23674583E+00
7098.2002       4.23569584E+00
7099.6001       4.25459290E+00
7101.0000       4.27559090E+00
7102.3999       4.26194191E+00
7103.7998       4.26299191E+00
7105.2002       4.28818893E+00
7106.6001       4.29133892E+00
7108.0000       4.27349091E+00
7109.3999       4.26404190E+00
7110.7998       4.28293991E+00
7112.2002       4.29133892E+00
7113.6001       4.29133892E+00
7115.0000       4.29448795E+00
7116.3999       4.31863499E+00
7117.7998       4.29658794E+00
7119.2002       4.28188992E+00
7120.6001       4.29973793E+00
7122.0000       4.26929092E+00
7123.3999       4.17585278E+00
7124.7998       4.13595772E+00
7126.2002       4.17480278E+00
7127.6001       4.18110275E+00
7129.0000       4.17690277E+00
7130.3999       4.17795277E+00
7131.7998       4.16430473E+00
7133.2002       4.16325474E+00
7134.6001       4.21679783E+00
7136.0000       4.22309685E+00
7137.3999       4.22414684E+00
7138.7998       4.21889782E+00
7140.2002       4.20419979E+00
7141.6001       4.21049881E+00
7143.0000       4.17165375E+00
7144.3999       4.12860870E+00
7145.7998       4.11391068E+00
7147.2002       4.13700771E+00
7148.6001       4.21469784E+00
7150.0000       4.21784782E+00
7151.3999       4.22729683E+00
7152.7998       4.24199486E+00
7154.2002       4.24514389E+00
7155.6001       4.23674583E+00
7157.0000       4.23884487E+00
7158.3999       4.22099781E+00
7159.7998       4.23779488E+00
7161.2002       4.27139091E+00
7162.6001       4.28398991E+00
7164.0000       4.29763794E+00
7165.3999       4.27559090E+00
7166.7998       4.26089287E+00
7168.2002       4.25984287E+00
7169.6001       4.23779488E+00
7171.0000       4.20839882E+00
7172.3999       4.20629883E+00
7173.7998       4.23149586E+00
7175.2002       4.23359585E+00
7176.6001       4.21994781E+00
7178.0000       4.21994781E+00
7179.3999       4.22939682E+00
7180.7998       4.23569584E+00
7182.2002       4.22834682E+00
7183.6001       4.20734882E+00
7185.0000       4.15275574E+00
7186.3999       4.13700771E+00
7187.7998       4.19580078E+00
7189.2002       4.28293991E+00
7190.6001       4.25459290E+00
7192.0000       4.23254585E+00
7193.3999       4.22204685E+00
7194.7998       4.21364784E+00
7196.2002       4.21154881E+00
7197.6001       4.21994781E+00
7199.0000       4.15485573E+00
7200.3999       4.15380573E+00
7201.7998       4.20209980E+00
7203.2002       4.22939682E+00
7204.6001       4.18740177E+00
7206.0000       4.13280869E+00
7207.3999       4.18110275E+00
7208.7998       4.23884487E+00
7210.2002       4.27559090E+00
7211.6001       4.30603695E+00
7213.0000       4.31758499E+00
7214.3999       4.32913399E+00
7215.7998       4.36063004E+00
7217.2002       4.39002609E+00
7218.6001       4.39527512E+00
7220.0000       4.38792610E+00
7221.3999       4.41627312E+00
7222.7998       4.42257214E+00
7224.2002       4.37427807E+00
7225.6001       4.36482906E+00
7227.0000       4.37742805E+00
7228.3999       4.36692905E+00
7229.7998       4.34488201E+00
7231.2002       4.32388496E+00
7232.6001       4.29553795E+00
7234.0000       4.27034092E+00
7235.3999       4.30918598E+00
7236.7998       4.35538101E+00
7238.2002       4.34698200E+00
7239.6001       4.29658794E+00
7241.0000       4.24724388E+00
7242.3999       4.27873993E+00
7243.7998       4.30603695E+00
7245.2002       4.33963299E+00
7246.6001       4.35538101E+00
7248.0000       4.33123398E+00
7249.3999       4.34173203E+00
7250.7998       4.33228302E+00
7252.2002       4.29553795E+00
7253.6001       4.30183697E+00
7255.0000       4.35328102E+00
7256.3999       4.39737511E+00
7257.7998       4.38057709E+00
7259.2002       4.42047215E+00
7260.6001       4.43622017E+00
7262.0000       4.42152214E+00
7263.3999       4.40997410E+00
7264.7998       4.42047215E+00
7266.2002       4.44461918E+00
7267.6001       4.43202114E+00
7269.0000       4.42677116E+00
7270.3999       4.44881916E+00
7271.7998       4.44042015E+00
7273.2002       4.40682411E+00
7274.6001       4.37847710E+00
7276.0000       4.35643005E+00
7277.3999       4.34383202E+00
7278.7998       4.35958004E+00
7280.2002       4.39842510E+00
7281.6001       4.42362213E+00
7283.0000       4.42152214E+00
7284.3999       4.40682411E+00
7285.7998       4.41627312E+00
7287.2002       4.40787411E+00
7288.6001       4.32913399E+00
7290.0000       4.30813694E+00
7291.3999       4.34593201E+00
7292.7998       4.37217808E+00
7294.2002       4.41732311E+00
7295.6001       4.42782116E+00
7297.0000       4.41312313E+00
7298.3999       4.41417313E+00
7299.7998       4.39107609E+00
7301.2002       4.37637806E+00
7302.6001       4.35643005E+00
7304.0000       4.40997410E+00
7305.3999       4.43307114E+00
7306.7998       4.40682411E+00
7308.2002       4.38897610E+00
7309.6001       4.38267708E+00
7311.0000       4.40262413E+00
7312.3999       4.39107609E+00
7313.7998       4.38057709E+00
7315.2002       4.39737511E+00
7316.6001       4.41732311E+00
7318.0000       4.42152214E+00
7319.3999       4.40262413E+00
7320.7998       4.38687706E+00
7322.2002       4.35223103E+00
7323.6001       4.35853004E+00
7325.0000       4.40997410E+00
7326.3999       4.40997410E+00
7327.7998       4.40787411E+00
7329.2002       4.41627312E+00
7330.6001       4.41837311E+00
7332.0000       4.42992115E+00
7333.3999       4.43727016E+00
7334.7998       4.42467213E+00
7336.2002       4.44042015E+00
7337.6001       4.46036720E+00
7339.0000       4.45826721E+00
7340.3999       4.39212608E+00
7341.7998       4.38477707E+00
7343.2002       4.40262413E+00
7344.6001       4.40577412E+00
7346.0000       4.39842510E+00
7347.3999       4.38687706E+00
7348.7998       4.37322807E+00
7350.2002       4.36168003E+00
7351.6001       4.34908104E+00
7353.0000       4.34173203E+00
7354.3999       4.34173203E+00
7355.7998       4.39107609E+00
7357.2002       4.42362213E+00
7358.6001       4.38057709E+00
7360.0000       4.35433102E+00
7361.3999       4.35223103E+00
7362.7998       4.40367413E+00
7364.2002       4.44566917E+00
7365.6001       4.44461918E+00
7367.0000       4.41207314E+00
7368.3999       4.38792610E+00
7369.7998       4.41522312E+00
7371.2002       4.40682411E+00
7372.6001       4.38792610E+00
7374.0000       4.40577412E+00
7375.3999       4.40052509E+00
7376.7998       4.39842510E+00
7378.2002       4.41102409E+00
7379.6001       4.41417313E+00
7381.0000       4.40892410E+00
7382.3999       4.39527512E+00
7383.7998       4.37742805E+00
7385.2002       4.35958004E+00
7386.6001       4.34698200E+00
7388.0000       4.36377907E+00
7389.3999       4.38792610E+00
7390.7998       4.39947510E+00
7392.2002       4.40367413E+00
7393.6001       4.38897610E+00
7395.0000       4.39632511E+00
7396.3999       4.38477707E+00
7397.7998       4.38687706E+00
7399.2002       4.41102409E+00
7400.6001       4.38057709E+00
7402.0000       4.37007904E+00
7403.3999       4.39317608E+00
7404.7998       4.40367413E+00
7406.2002       4.38477707E+00
7407.6001       4.39947510E+00
7409.0000       4.39947510E+00
7410.3999       4.38582706E+00
7411.7998       4.37742805E+00
7413.2002       4.36692905E+00
7414.6001       4.37112808E+00
7416.0000       4.37112808E+00
7417.3999       4.36587906E+00
7418.7998       4.37007904E+00
7420.2002       4.37742805E+00
7421.6001       4.39002609E+00
7423.0000       4.40052509E+00
7424.3999       4.40052509E+00
7425.7998       4.40262413E+00
7427.2002       4.39737511E+00
