#
# Spectrum of HD28099, spectral type G0v
# Source: Jacoby, Hunter, & Christian, 1984, ApJ, 56, 257
#         Scaled to flux=1.0 at 5500 Angstroms.
#
# Wave: wavelength in Angstroms
# Flux: scaled flux normalized to 1.0 at 5500A then shifted
#       in order of spectral type
Wave  Flux
3510.0000       7.67566490E+00
3511.3999       7.64509726E+00
3512.8000       7.62048435E+00
3514.2000       7.59348965E+00
3515.6001       7.60817814E+00
3517.0000       7.63556957E+00
3518.3999       7.65621281E+00
3519.8000       7.63398170E+00
3521.2000       7.61095667E+00
3522.6001       7.58316803E+00
3524.0000       7.56411266E+00
3525.3999       7.55776119E+00
3526.8000       7.57880116E+00
3528.2000       7.63279057E+00
3529.6001       7.65899181E+00
3531.0000       7.66375542E+00
3532.3999       7.67844391E+00
3533.8000       7.68876553E+00
3535.2000       7.68836832E+00
3536.6001       7.68995619E+00
3538.0000       7.70067501E+00
3539.3999       7.71814203E+00
3540.8000       7.70901155E+00
3542.2000       7.69789600E+00
3543.6001       7.70424747E+00
3545.0000       7.71615696E+00
3546.3999       7.71337843E+00
3547.8000       7.68797159E+00
3549.2000       7.69352913E+00
3550.6001       7.68876553E+00
3552.0000       7.66335869E+00
3553.3999       7.64509726E+00
3554.8000       7.64509726E+00
3556.2000       7.65383101E+00
3557.6001       7.63120270E+00
3559.0000       7.61929321E+00
3560.3999       7.63120270E+00
3561.8000       7.64747906E+00
3563.2000       7.64390612E+00
3564.6001       7.60778093E+00
3566.0000       7.57959509E+00
3567.3999       7.55379105E+00
3568.8000       7.52362061E+00
3570.2000       7.50258064E+00
3571.6001       7.51409292E+00
3573.0000       7.55537891E+00
3574.3999       7.59110737E+00
3575.8000       7.60698700E+00
3577.2000       7.59190178E+00
3578.6001       7.55339432E+00
3580.0000       7.50258064E+00
3581.3999       7.46010303E+00
3582.8000       7.44700289E+00
3584.2000       7.44620895E+00
3585.6001       7.44660568E+00
3587.0000       7.45930910E+00
3588.3999       7.49384689E+00
3589.8000       7.54743958E+00
3591.2000       7.61135387E+00
3592.6001       7.65700674E+00
3594.0000       7.67884064E+00
3595.3999       7.70662975E+00
3596.8000       7.72489071E+00
3598.2000       7.74196100E+00
3599.6001       7.73957920E+00
3601.0000       7.70385075E+00
3602.3999       7.65462494E+00
3603.8000       7.61135387E+00
3605.2000       7.58832884E+00
3606.6001       7.57919788E+00
3608.0000       7.56530380E+00
3609.3999       7.55021858E+00
3610.8000       7.55458498E+00
3612.2000       7.58316803E+00
3613.6001       7.60857487E+00
3615.0000       7.63080597E+00
3616.3999       7.63556957E+00
3617.8000       7.60460520E+00
3619.2000       7.55180645E+00
3620.6001       7.52203274E+00
3622.0000       7.55180645E+00
3623.3999       7.62167549E+00
3624.8000       7.67328310E+00
3626.2000       7.70265961E+00
3627.6001       7.71893597E+00
3629.0000       7.72608185E+00
3630.3999       7.69868994E+00
3631.8000       7.63001204E+00
3633.2000       7.58951950E+00
3634.6001       7.59587145E+00
3636.0000       7.62604237E+00
3637.3999       7.65660954E+00
3638.8000       7.68757439E+00
3640.2000       7.71258450E+00
3641.6001       7.72092104E+00
3643.0000       7.68916225E+00
3644.3999       7.65899181E+00
3645.8000       7.63477564E+00
3647.2000       7.60698700E+00
3648.6001       7.58078623E+00
3650.0000       7.58793163E+00
3651.3999       7.62088108E+00
3652.8000       7.69313240E+00
3654.2000       7.74553394E+00
3655.6001       7.76300144E+00
3657.0000       7.76538324E+00
3658.3999       7.77451372E+00
3659.8000       7.81063938E+00
3661.2000       7.79436302E+00
3662.6001       7.77292585E+00
3664.0000       7.76617718E+00
3665.3999       7.76736784E+00
3666.8000       7.77371979E+00
3668.2000       7.77649879E+00
3669.6001       7.75267982E+00
3671.0000       7.72052383E+00
3672.3999       7.73481560E+00
3673.8000       7.76538324E+00
3675.2000       7.77133799E+00
3676.6001       7.75784063E+00
3678.0000       7.72489071E+00
3679.3999       7.68955946E+00
3680.8000       7.68479538E+00
3682.2000       7.69670486E+00
3683.6001       7.70265961E+00
3685.0000       7.70583582E+00
3686.3999       7.69670486E+00
3687.8000       7.67328310E+00
3689.2000       7.67645884E+00
3690.6001       7.72886086E+00
3692.0000       7.78642321E+00
3693.3999       7.80230236E+00
3694.8000       7.77729273E+00
3696.2000       7.73997641E+00
3697.6001       7.72250891E+00
3699.0000       7.74950361E+00
3700.3999       7.79595089E+00
3701.8000       7.80587530E+00
3703.2000       7.76498604E+00
3704.6001       7.69630814E+00
3706.0000       7.62921810E+00
3707.3999       7.58991671E+00
3708.8000       7.58793163E+00
3710.2000       7.60976601E+00
3711.6001       7.65700674E+00
3713.0000       7.72528791E+00
3714.3999       7.78682041E+00
3715.8000       7.81857872E+00
3717.2000       7.81778479E+00
3718.6001       7.75903130E+00
3720.0000       7.66653442E+00
3721.3999       7.57840395E+00
3722.8000       7.54585171E+00
3724.2000       7.60182619E+00
3725.6001       7.67487097E+00
3727.0000       7.72250891E+00
3728.3999       7.73957920E+00
3729.8000       7.73402119E+00
3731.2000       7.69551420E+00
3732.6001       7.62564516E+00
3734.0000       7.53116322E+00
3735.3999       7.47002792E+00
3736.8000       7.47439480E+00
3738.2000       7.52481127E+00
3739.6001       7.59388638E+00
3741.0000       7.67050409E+00
3742.3999       7.71496630E+00
3743.8000       7.68082571E+00
3745.2000       7.61452961E+00
3746.6001       7.54743958E+00
3748.0000       7.50297737E+00
3749.3999       7.48551035E+00
3750.8000       7.50218344E+00
3752.2000       7.58793163E+00
3753.6001       7.69154453E+00
3755.0000       7.76697111E+00
3756.3999       7.79992056E+00
3757.8000       7.76975012E+00
3759.2000       7.71576023E+00
3760.6001       7.70464468E+00
3762.0000       7.71377516E+00
3763.3999       7.71496630E+00
3764.8000       7.70305681E+00
3766.2000       7.69591093E+00
3767.6001       7.68281078E+00
3769.0000       7.66494656E+00
3770.3999       7.66415262E+00
3771.8000       7.68995619E+00
3773.2000       7.74275494E+00
3774.6001       7.79595089E+00
3776.0000       7.82890034E+00
3777.3999       7.85827732E+00
3778.8000       7.88844776E+00
3780.2000       7.91107559E+00
3781.6001       7.92774916E+00
3783.0000       7.93886471E+00
3784.3999       7.94164371E+00
3785.8000       7.90313625E+00
3787.2000       7.83128214E+00
3788.6001       7.76935291E+00
3790.0000       7.72925758E+00
3791.3999       7.72449398E+00
3792.8000       7.71734810E+00
3794.2000       7.67526817E+00
3795.6001       7.62604237E+00
3797.0000       7.58951950E+00
3798.3999       7.57165527E+00
3799.8000       7.58515263E+00
3801.2000       7.64668512E+00
3802.6001       7.73203659E+00
3804.0000       7.79634762E+00
3805.3999       7.81778479E+00
3806.8000       7.80587530E+00
3808.2000       7.80230236E+00
3809.6001       7.82493067E+00
3811.0000       7.83882523E+00
3812.3999       7.81619692E+00
3813.8000       7.75982523E+00
3815.2000       7.70067501E+00
3816.6001       7.67050409E+00
3818.0000       7.67804670E+00
3819.3999       7.67725277E+00
3820.8000       7.65660954E+00
3822.2000       7.63993645E+00
3823.6001       7.63040876E+00
3825.0000       7.58118296E+00
3826.3999       7.53473616E+00
3827.8000       7.50853539E+00
3829.2000       7.49702263E+00
3830.6001       7.48709822E+00
3832.0000       7.45732450E+00
3833.3999       7.42596245E+00
3834.8000       7.41365623E+00
3836.2000       7.43072653E+00
3837.6001       7.46367598E+00
3839.0000       7.47518873E+00
3840.3999       7.50416851E+00
3841.8000       7.56768560E+00
3843.2000       7.64549446E+00
3844.6001       7.70901155E+00
3846.0000       7.75228262E+00
3847.3999       7.77094078E+00
3848.8000       7.76895618E+00
3850.2000       7.76975012E+00
3851.6001       7.78880501E+00
3853.0000       7.79753876E+00
3854.3999       7.79277515E+00
3855.8000       7.77848339E+00
3857.2000       7.75664949E+00
3858.6001       7.72568464E+00
3860.0000       7.70464468E+00
3861.3999       7.73799133E+00
3862.8000       7.79277515E+00
3864.2000       7.83803082E+00
3865.6001       7.85907125E+00
3867.0000       7.85708618E+00
3868.3999       7.83922195E+00
3869.8000       7.79396582E+00
3871.2000       7.75109196E+00
3872.6001       7.73878527E+00
3874.0000       7.76260424E+00
3875.3999       7.79277515E+00
3876.8000       7.77808666E+00
3878.2000       7.73759460E+00
3879.6001       7.70265961E+00
3881.0000       7.68638325E+00
3882.3999       7.67407703E+00
3883.8000       7.65184593E+00
3885.2000       7.62008715E+00
3886.6001       7.57364035E+00
3888.0000       7.53989697E+00
3889.3999       7.55299711E+00
3890.8000       7.61611748E+00
3892.2000       7.68757439E+00
3893.6001       7.72965479E+00
3895.0000       7.75387049E+00
3896.3999       7.78443813E+00
3897.8000       7.80587530E+00
3899.2000       7.81222725E+00
3900.6001       7.82929754E+00
3902.0000       7.84160376E+00
3903.3999       7.83326721E+00
3904.8000       7.82413673E+00
3906.2000       7.84160376E+00
3907.6001       7.88805103E+00
3909.0000       7.94204044E+00
3910.3999       7.97776890E+00
3911.8000       7.99801540E+00
3913.2000       8.00397015E+00
3914.6001       7.99841213E+00
3916.0000       7.98253298E+00
3917.3999       7.96506548E+00
3918.8000       7.91980934E+00
3920.2000       7.87058353E+00
3921.6001       7.84319162E+00
3923.0000       7.84358883E+00
3924.3999       7.84517670E+00
3925.8000       7.80666924E+00
3927.2000       7.74672508E+00
3928.6001       7.65978575E+00
3930.0000       7.56093693E+00
3931.3999       7.47439480E+00
3932.8000       7.41167116E+00
3934.2000       7.40412855E+00
3935.6001       7.44779682E+00
3937.0000       7.53433895E+00
3938.3999       7.61849928E+00
3939.8000       7.68241358E+00
3941.2000       7.72965479E+00
3942.6001       7.75585556E+00
3944.0000       7.76538324E+00
3945.3999       7.80547857E+00
3946.8000       7.84358883E+00
3948.2000       7.87018681E+00
3949.6001       7.89281464E+00
3951.0000       7.90948772E+00
3952.3999       7.90313625E+00
3953.8000       7.89003563E+00
3955.2000       7.87296534E+00
3956.6001       7.84001589E+00
3958.0000       7.83406115E+00
3959.3999       7.80190563E+00
3960.8000       7.73878527E+00
3962.2000       7.65025806E+00
3963.6001       7.57721329E+00
3965.0000       7.50258064E+00
3966.3999       7.42040491E+00
3967.8000       7.34950399E+00
3969.2000       7.32580376E+00
3970.6001       7.35728455E+00
3972.0000       7.42358065E+00
3973.3999       7.50337458E+00
3974.8000       7.58951950E+00
3976.2000       7.68281078E+00
3977.6001       7.76975012E+00
3979.0000       7.83803082E+00
3980.3999       7.89043283E+00
3981.8000       7.92457342E+00
3983.2000       7.93251276E+00
3984.6001       7.94045258E+00
3986.0000       7.96149254E+00
3987.3999       7.98769379E+00
3988.8000       8.03136158E+00
3990.2000       8.06073856E+00
3991.6001       8.07304478E+00
3993.0000       8.09051228E+00
3994.3999       8.10123062E+00
3995.8000       8.08733654E+00
3997.2000       8.07582378E+00
3998.6001       8.09249687E+00
4000.0000       8.11830139E+00
4001.3999       8.12703514E+00
4002.8000       8.11155224E+00
4004.2000       8.08654213E+00
4005.6001       8.06232643E+00
4007.0000       8.06629658E+00
4008.3999       8.10003948E+00
4009.8000       8.13259220E+00
4011.2000       8.15204430E+00
4012.6001       8.16316032E+00
4014.0000       8.17705441E+00
4015.3999       8.19650650E+00
4016.8000       8.21079826E+00
4018.2000       8.21317959E+00
4019.6001       8.21516514E+00
4021.0000       8.20881271E+00
4022.3999       8.20087337E+00
4023.8000       8.20524025E+00
4025.2000       8.20643139E+00
4026.6001       8.20444584E+00
4028.0000       8.19372749E+00
4029.3999       8.15760231E+00
4030.8000       8.10916996E+00
4032.2000       8.06947231E+00
4033.6001       8.06867790E+00
4035.0000       8.10837650E+00
4036.3999       8.17189407E+00
4037.8000       8.22469234E+00
4039.2000       8.25248146E+00
4040.6001       8.21873760E+00
4042.0000       8.19531536E+00
4043.3999       8.13100433E+00
4044.8000       8.05002022E+00
4046.2000       8.01945210E+00
4047.6001       8.09765816E+00
4049.0000       8.16990852E+00
4050.3999       8.19610977E+00
4051.8000       8.16752720E+00
4053.2000       8.14212036E+00
4054.6001       8.12187386E+00
4056.0000       8.10996437E+00
4057.3999       8.10639191E+00
4058.8000       8.10321522E+00
4060.2000       8.09249687E+00
4061.6001       8.06709003E+00
4063.0000       8.03017044E+00
4064.3999       8.03334618E+00
4065.8000       8.04565334E+00
4067.2000       8.06867790E+00
4068.6001       8.08495426E+00
4070.0000       8.07502937E+00
4071.3999       8.05081367E+00
4072.8000       8.04565334E+00
4074.2000       8.05795956E+00
4075.6001       8.05875397E+00
4077.0000       8.02699471E+00
4078.3999       8.03175831E+00
4079.8000       8.07344151E+00
4081.2000       8.11869812E+00
4082.6001       8.12147713E+00
4084.0000       8.09408474E+00
4085.3999       8.08098412E+00
4086.8000       8.09765816E+00
4088.2000       8.13298893E+00
4089.6001       8.12266731E+00
4091.0000       8.08257294E+00
4092.3999       8.05002022E+00
4093.8000       8.03374386E+00
4095.2000       7.99444199E+00
4096.6001       7.93568897E+00
4098.0000       7.88408089E+00
4099.3999       7.82453346E+00
4100.7998       7.76498604E+00
4102.2002       7.74513721E+00
4103.6001       7.78761435E+00
4105.0000       7.86939240E+00
4106.3999       7.94878912E+00
4107.7998       7.99364853E+00
4109.2002       8.00913048E+00
4110.6001       8.01746750E+00
4112.0000       8.04366779E+00
4113.3999       8.08535099E+00
4114.7998       8.12266731E+00
4116.2002       8.14966297E+00
4117.6001       8.15601444E+00
4119.0000       8.14807510E+00
4120.3999       8.14251709E+00
4121.7998       8.13656235E+00
4123.2002       8.14053154E+00
4124.6001       8.14529610E+00
4126.0000       8.13338661E+00
4127.3999       8.12107944E+00
4128.7998       8.11750698E+00
4130.2002       8.12068272E+00
4131.6001       8.09765816E+00
4133.0000       8.08813000E+00
4134.3999       8.10202503E+00
4135.7998       8.13140106E+00
4137.2002       8.16117477E+00
4138.6001       8.20960712E+00
4140.0000       8.21754646E+00
4141.3999       8.18856716E+00
4142.7998       8.13140106E+00
4144.2002       8.11433125E+00
4145.6001       8.14172268E+00
4147.0000       8.17546654E+00
4148.3999       8.17625999E+00
4149.7998       8.16355705E+00
4151.2002       8.14251709E+00
4152.6001       8.11988926E+00
4154.0000       8.09607029E+00
4155.3999       8.07939625E+00
4156.7998       8.08495426E+00
4158.2002       8.10083389E+00
4159.6001       8.12663746E+00
4161.0000       8.17506981E+00
4162.3999       8.20206451E+00
4163.7998       8.21317959E+00
4165.2002       8.21714973E+00
4166.6001       8.19968224E+00
4168.0000       8.17745113E+00
4169.3999       8.15839577E+00
4170.7998       8.13298893E+00
4172.2002       8.08971786E+00
4173.6001       8.06907463E+00
4175.0000       8.07542706E+00
4176.3999       8.09249687E+00
4177.7998       8.10123062E+00
4179.2002       8.11512470E+00
4180.6001       8.11790371E+00
4182.0000       8.11194897E+00
4183.3999       8.10718536E+00
4184.7998       8.12028599E+00
4186.2002       8.10400963E+00
4187.6001       8.08773327E+00
4189.0000       8.09924603E+00
4190.3999       8.13298893E+00
4191.7998       8.15561771E+00
4193.2002       8.15958691E+00
4194.6001       8.14886856E+00
4196.0000       8.11314011E+00
4197.3999       8.06907463E+00
4198.7998       8.03771305E+00
4200.2002       8.02699471E+00
4201.6001       8.02977371E+00
4203.0000       8.04922581E+00
4204.3999       8.09487915E+00
4205.7998       8.14529610E+00
4207.2002       8.17665768E+00
4208.6001       8.17784882E+00
4210.0000       8.17149639E+00
4211.3999       8.18062687E+00
4212.7998       8.19928551E+00
4214.2002       8.19610977E+00
4215.6001       8.15601444E+00
4217.0000       8.12624073E+00
4218.3999       8.13616562E+00
4219.7998       8.16792393E+00
4221.2002       8.16633606E+00
4222.6001       8.13219547E+00
4224.0000       8.08892441E+00
4225.3999       8.00913048E+00
4226.7998       7.92060328E+00
4228.2002       7.94680405E+00
4229.6001       8.03453732E+00
4231.0000       8.12941647E+00
4232.3999       8.15561771E+00
4233.7998       8.11671257E+00
4235.2002       8.08336639E+00
4236.6001       8.06510544E+00
4238.0000       8.06431103E+00
4239.3999       8.08257294E+00
4240.7998       8.10400963E+00
4242.2002       8.12941647E+00
4243.6001       8.14807510E+00
4245.0000       8.14212036E+00
4246.3999       8.12346172E+00
4247.7998       8.08813000E+00
4249.2002       8.04882908E+00
4250.6001       8.03533173E+00
4252.0000       8.04366779E+00
4253.3999       8.05398941E+00
4254.7998       8.05597496E+00
4256.2002       8.06192970E+00
4257.6001       8.09487915E+00
4259.0000       8.08098412E+00
4260.3999       8.04525566E+00
4261.7998       8.02739143E+00
4263.2002       8.09011555E+00
4264.6001       8.14767742E+00
4266.0000       8.17546654E+00
4267.3999       8.15958691E+00
4268.7998       8.12068272E+00
4270.2002       8.05795956E+00
4271.6001       7.99404526E+00
4273.0000       7.94601059E+00
4274.3999       7.97062302E+00
4275.7998       8.03334618E+00
4277.2002       8.09408474E+00
4278.6001       8.14847183E+00
4280.0000       8.14529610E+00
4281.3999       8.11988926E+00
4282.7998       8.10837650E+00
4284.2002       8.10916996E+00
4285.6001       8.10043716E+00
4287.0000       8.08693886E+00
4288.3999       8.05398941E+00
4289.7998       8.01865768E+00
4291.2002       8.00198460E+00
4292.6001       8.02421570E+00
4294.0000       8.04803467E+00
4295.3999       8.04724121E+00
4296.7998       8.03175831E+00
4298.2002       7.97816610E+00
4299.6001       7.89956331E+00
4301.0000       7.84239769E+00
4302.3999       7.82612133E+00
4303.7998       7.83763409E+00
4305.2002       7.85192537E+00
4306.6001       7.84676456E+00
4308.0000       7.81976986E+00
4309.3999       7.79475975E+00
4310.7998       7.81024218E+00
4312.2002       7.85430717E+00
4313.6001       7.90393019E+00
4315.0000       7.97657824E+00
4316.3999       8.06788445E+00
4317.7998       8.14212036E+00
4319.2002       8.16514492E+00
4320.6001       8.15045643E+00
4322.0000       8.11750698E+00
4323.3999       8.06232643E+00
4324.7998       7.97181416E+00
4326.2002       7.90829706E+00
4327.6001       7.92219162E+00
4329.0000       7.99920607E+00
4330.3999       8.05160809E+00
4331.7998       8.06709003E+00
4333.2002       8.06232643E+00
4334.6001       8.05121040E+00
4336.0000       8.01865768E+00
4337.3999       7.93410110E+00
4338.7998       7.83763409E+00
4340.2002       7.74910688E+00
4341.6001       7.71615696E+00
4343.0000       7.78007126E+00
4344.3999       7.85073423E+00
4345.7998       7.92139721E+00
4347.2002       7.98094463E+00
4348.6001       8.01230621E+00
4350.0000       8.02620125E+00
4351.3999       8.00317574E+00
4352.7998       7.96903515E+00
4354.2002       7.98769379E+00
4355.6001       8.02501011E+00
4357.0000       8.05954742E+00
4358.3999       8.08336639E+00
4359.7998       8.08932114E+00
4361.2002       8.11472797E+00
4362.6001       8.14331055E+00
4364.0000       8.16276264E+00
4365.3999       8.17546654E+00
4366.7998       8.18181801E+00
4368.2002       8.15522003E+00
4369.6001       8.13576794E+00
4371.0000       8.12624073E+00
4372.3999       8.12703514E+00
4373.7998       8.09090900E+00
4375.2002       8.06907463E+00
4376.6001       8.06470871E+00
4378.0000       8.08693886E+00
4379.3999       8.11750698E+00
4380.7998       8.10123062E+00
4382.2002       8.04406548E+00
4383.6001       7.97022629E+00
4385.0000       7.89837217E+00
4386.3999       7.93370390E+00
4387.7998       7.99960327E+00
4389.2002       8.03930092E+00
4390.6001       8.05518055E+00
4392.0000       8.06391430E+00
4393.3999       8.06788445E+00
4394.7998       8.07383919E+00
4396.2002       8.09051228E+00
4397.6001       8.13338661E+00
4399.0000       8.14569283E+00
4400.3999       8.12544632E+00
4401.7998       8.10599422E+00
4403.2002       8.09170341E+00
4404.6001       8.04485893E+00
4406.0000       8.01746750E+00
4407.3999       8.04009533E+00
4408.7998       8.07344151E+00
4410.2002       8.11869812E+00
4411.6001       8.16990852E+00
4413.0000       8.17864227E+00
4414.3999       8.13815022E+00
4415.7998       8.08813000E+00
4417.2002       8.08614540E+00
4418.6001       8.14529610E+00
4420.0000       8.18658257E+00
4421.3999       8.19055176E+00
4422.7998       8.17665768E+00
4424.2002       8.16077805E+00
4425.6001       8.16355705E+00
4427.0000       8.18142128E+00
4428.3999       8.18975830E+00
4429.7998       8.17864227E+00
4431.2002       8.15522003E+00
4432.6001       8.14410496E+00
4434.0000       8.13259220E+00
4435.3999       8.11949158E+00
4436.7998       8.13338661E+00
4438.2002       8.18261242E+00
4439.6001       8.20603371E+00
4441.0000       8.19293404E+00
4442.3999       8.15283871E+00
4443.7998       8.12504959E+00
4445.2002       8.16633606E+00
4446.6001       8.19372749E+00
4448.0000       8.21317959E+00
4449.3999       8.21794319E+00
4450.7998       8.21476746E+00
4452.2002       8.19333076E+00
4453.6001       8.14608955E+00
4455.0000       8.09210014E+00
4456.3999       8.05319595E+00
4457.7998       8.04684448E+00
4459.2002       8.06550217E+00
4460.6001       8.07860279E+00
4462.0000       8.09964275E+00
4463.3999       8.12743187E+00
4464.7998       8.14370823E+00
4466.2002       8.14608955E+00
4467.6001       8.13815022E+00
4469.0000       8.13100433E+00
4470.3999       8.12941647E+00
4471.7998       8.16157246E+00
4473.2002       8.19094849E+00
4474.6001       8.20762253E+00
4476.0000       8.21317959E+00
4477.3999       8.21159172E+00
4478.7998       8.17586327E+00
4480.2002       8.12584400E+00
4481.6001       8.09726048E+00
4483.0000       8.11591911E+00
4484.3999       8.17427540E+00
4485.7998       8.20087337E+00
4487.2002       8.20087337E+00
4488.6001       8.17586327E+00
4490.0000       8.14410496E+00
4491.3999       8.14489841E+00
4492.7998       8.15402985E+00
4494.2002       8.14688396E+00
4495.6001       8.14212036E+00
4497.0000       8.15323544E+00
4498.3999       8.17586327E+00
4499.7998       8.18896389E+00
4501.2002       8.19412422E+00
4502.6001       8.20563698E+00
4504.0000       8.23064709E+00
4505.3999       8.26359653E+00
4506.7998       8.27312469E+00
4508.2002       8.26399326E+00
4509.6001       8.25446606E+00
4511.0000       8.25486279E+00
4512.3999       8.23461723E+00
4513.7998       8.20682812E+00
4515.2002       8.19769764E+00
4516.6001       8.19015503E+00
4518.0000       8.18697929E+00
4519.3999       8.19571304E+00
4520.7998       8.20603371E+00
4522.2002       8.19491863E+00
4523.6001       8.17070293E+00
4525.0000       8.13894367E+00
4526.3999       8.10202503E+00
4527.7998       8.07225132E+00
4529.2002       8.07026577E+00
4530.6001       8.07939625E+00
4532.0000       8.08614540E+00
4533.3999       8.08416080E+00
4534.7998       8.09765816E+00
4536.2002       8.14648628E+00
4537.6001       8.18816948E+00
4539.0000       8.19491863E+00
4540.3999       8.18300915E+00
4541.7998       8.19333076E+00
4543.2002       8.19769764E+00
4544.6001       8.18181801E+00
4546.0000       8.16196918E+00
4547.3999       8.13140106E+00
4548.7998       8.10599422E+00
4550.2002       8.13656235E+00
4551.6001       8.16316032E+00
4553.0000       8.16038132E+00
4554.3999       8.14132595E+00
4555.7998       8.14331055E+00
4557.2002       8.17070293E+00
4558.6001       8.21040154E+00
4560.0000       8.22270775E+00
4561.3999       8.21953201E+00
4562.7998       8.18499374E+00
4564.2002       8.13537121E+00
4565.6001       8.14569283E+00
4567.0000       8.18539143E+00
4568.3999       8.20603371E+00
4569.7998       8.20007896E+00
4571.2002       8.17030525E+00
4572.6001       8.18658257E+00
4574.0000       8.20444584E+00
4575.3999       8.21238613E+00
4576.7998       8.20881271E+00
4578.2002       8.18102455E+00
4579.6001       8.15323544E+00
4581.0000       8.12862206E+00
4582.3999       8.11393452E+00
4583.7998       8.11353683E+00
4585.2002       8.13021088E+00
4586.6001       8.15204430E+00
4588.0000       8.16712952E+00
4589.3999       8.17189407E+00
4590.7998       8.16593933E+00
4592.2002       8.14251709E+00
4593.6001       8.12385845E+00
4595.0000       8.12187386E+00
4596.3999       8.13021088E+00
4597.7998       8.13775349E+00
4599.2002       8.13021088E+00
4600.6001       8.13854694E+00
4602.0000       8.14807510E+00
4603.3999       8.15522003E+00
4604.7998       8.16633606E+00
4606.2002       8.17348194E+00
4607.6001       8.18697929E+00
4609.0000       8.18816948E+00
4610.3999       8.18340588E+00
4611.7998       8.17983341E+00
4613.2002       8.17745113E+00
4614.6001       8.18697929E+00
4616.0000       8.18181801E+00
4617.3999       8.18261242E+00
4618.7998       8.19690323E+00
4620.2002       8.20762253E+00
4621.6001       8.21754646E+00
4623.0000       8.20285797E+00
4624.3999       8.19134617E+00
4625.7998       8.19690323E+00
4627.2002       8.19134617E+00
4628.6001       8.18300915E+00
4630.0000       8.17784882E+00
4631.3999       8.18340588E+00
4632.7998       8.17586327E+00
4634.2002       8.14966297E+00
4635.6001       8.14251709E+00
4637.0000       8.13616562E+00
4638.3999       8.13378334E+00
4639.7998       8.15204430E+00
4641.2002       8.16117477E+00
4642.6001       8.14608955E+00
4644.0000       8.12306499E+00
4645.3999       8.10321522E+00
4646.7998       8.08574867E+00
4648.2002       8.07741165E+00
4649.6001       8.10559750E+00
4651.0000       8.13259220E+00
4652.3999       8.14291382E+00
4653.7998       8.13060760E+00
4655.2002       8.12782860E+00
4656.6001       8.14688396E+00
4658.0000       8.17824554E+00
4659.3999       8.19293404E+00
4660.7998       8.18142128E+00
4662.2002       8.12901974E+00
4663.6001       8.09527588E+00
4665.0000       8.07264805E+00
4666.3999       8.04207993E+00
4667.7998       8.03453732E+00
4669.2002       8.08177853E+00
4670.6001       8.13894367E+00
4672.0000       8.13219547E+00
4673.3999       8.13695908E+00
4674.7998       8.14648628E+00
4676.2002       8.15442657E+00
4677.6001       8.13934135E+00
4679.0000       8.11790371E+00
4680.3999       8.11909485E+00
4681.7998       8.12584400E+00
4683.2002       8.14450169E+00
4684.6001       8.17149639E+00
4686.0000       8.15879345E+00
4687.3999       8.14807510E+00
4688.7998       8.13378334E+00
4690.2002       8.12266731E+00
4691.6001       8.11472797E+00
4693.0000       8.12028599E+00
4694.3999       8.13298893E+00
4695.7998       8.12981319E+00
4697.2002       8.11472797E+00
4698.6001       8.10361290E+00
4700.0000       8.08574867E+00
4701.3999       8.06907463E+00
4702.7998       8.04763794E+00
4704.2002       8.04644680E+00
4705.6001       8.06709003E+00
4707.0000       8.07502937E+00
4708.3999       8.06272316E+00
4709.7998       8.07899952E+00
4711.2002       8.10877323E+00
4712.6001       8.10599422E+00
4714.0000       8.08416080E+00
4715.3999       8.09130573E+00
4716.7998       8.11909485E+00
4718.2002       8.14092922E+00
4719.6001       8.15005970E+00
4721.0000       8.14847183E+00
4722.3999       8.15601444E+00
4723.7998       8.16673279E+00
4725.2002       8.16514492E+00
4726.6001       8.14847183E+00
4728.0000       8.12465286E+00
4729.3999       8.10639191E+00
4730.7998       8.08932114E+00
4732.2002       8.08733654E+00
4733.6001       8.10758209E+00
4735.0000       8.11274338E+00
4736.3999       8.10480309E+00
4737.7998       8.10916996E+00
4739.2002       8.12147713E+00
4740.6001       8.11909485E+00
4742.0000       8.12028599E+00
4743.3999       8.13537121E+00
4744.7998       8.13934135E+00
4746.2002       8.13497448E+00
4747.6001       8.13497448E+00
4749.0000       8.13934135E+00
4750.3999       8.14529610E+00
4751.7998       8.14291382E+00
4753.2002       8.12822533E+00
4754.6001       8.10400963E+00
4756.0000       8.08693886E+00
4757.3999       8.09011555E+00
4758.7998       8.10797977E+00
4760.2002       8.12743187E+00
4761.6001       8.12187386E+00
4763.0000       8.08416080E+00
4764.3999       8.06510544E+00
4765.7998       8.05478382E+00
4767.2002       8.05756283E+00
4768.6001       8.07622051E+00
4770.0000       8.09964275E+00
4771.3999       8.12028599E+00
4772.7998       8.13775349E+00
4774.2002       8.15323544E+00
4775.6001       8.16752720E+00
4777.0000       8.18856716E+00
4778.3999       8.18896389E+00
4779.7998       8.17864227E+00
4781.2002       8.16951180E+00
4782.6001       8.15879345E+00
4784.0000       8.14092922E+00
4785.3999       8.13060760E+00
4786.7998       8.12147713E+00
4788.2002       8.10718536E+00
4789.6001       8.10916996E+00
4791.0000       8.11194897E+00
4792.3999       8.11234665E+00
4793.7998       8.12703514E+00
4795.2002       8.15363216E+00
4796.6001       8.17189407E+00
4798.0000       8.15323544E+00
4799.3999       8.13695908E+00
4800.7998       8.11750698E+00
4802.2002       8.10480309E+00
4803.6001       8.12306499E+00
4805.0000       8.12227058E+00
4806.3999       8.09408474E+00
4807.7998       8.07225132E+00
4809.2002       8.06709003E+00
4810.6001       8.07622051E+00
4812.0000       8.08813000E+00
4813.3999       8.10916996E+00
4814.7998       8.12385845E+00
4816.2002       8.12465286E+00
4817.6001       8.13616562E+00
4819.0000       8.13735580E+00
4820.3999       8.13576794E+00
4821.7998       8.13457680E+00
4823.2002       8.11472797E+00
4824.6001       8.08733654E+00
4826.0000       8.06947231E+00
4827.3999       8.07899952E+00
4828.7998       8.09646702E+00
4830.2002       8.09567261E+00
4831.6001       8.10083389E+00
4833.0000       8.10202503E+00
4834.3999       8.10202503E+00
4835.7998       8.09527588E+00
4837.2002       8.08019066E+00
4838.6001       8.06311989E+00
4840.0000       8.06470871E+00
4841.3999       8.07383919E+00
4842.7998       8.07502937E+00
4844.2002       8.08138180E+00
4845.6001       8.08535099E+00
4847.0000       8.08574867E+00
4848.3999       8.08336639E+00
4849.7998       8.06232643E+00
4851.2002       8.03453732E+00
4852.6001       8.00039673E+00
4854.0000       7.96069860E+00
4855.3999       7.93211603E+00
4856.7998       7.90273905E+00
4858.2002       7.85351324E+00
4859.6001       7.79634762E+00
4861.0000       7.77252865E+00
4862.3999       7.80786037E+00
4863.7998       7.86661386E+00
4865.2002       7.90631199E+00
4866.6001       7.94878912E+00
4868.0000       7.97181416E+00
4869.3999       7.95831680E+00
4870.7998       7.92536736E+00
4872.2002       7.90353298E+00
4873.6001       7.93013096E+00
4875.0000       7.97896004E+00
4876.3999       8.00595474E+00
4877.7998       8.02898026E+00
4879.2002       8.05160809E+00
4880.6001       8.06153202E+00
4882.0000       8.04843235E+00
4883.3999       8.02699471E+00
4884.7998       8.00754261E+00
4886.2002       8.00238228E+00
4887.6001       8.00357246E+00
4889.0000       7.99285412E+00
4890.3999       7.96506548E+00
4891.7998       7.98412085E+00
4893.2002       8.04565334E+00
4894.6001       8.09884834E+00
4896.0000       8.12385845E+00
4897.3999       8.13298893E+00
4898.7998       8.14608955E+00
4900.2002       8.14370823E+00
4901.6001       8.12147713E+00
4903.0000       8.09130573E+00
4904.3999       8.08614540E+00
4905.7998       8.10440636E+00
4907.2002       8.10400963E+00
4908.6001       8.06629658E+00
4910.0000       8.02818584E+00
4911.3999       8.03215599E+00
4912.7998       8.06311989E+00
4914.2002       8.08654213E+00
4915.6001       8.09408474E+00
4917.0000       8.07423592E+00
4918.3999       8.00674915E+00
4919.7998       7.94402552E+00
4921.2002       7.94204044E+00
4922.6001       7.97141743E+00
4924.0000       8.00357246E+00
4925.3999       8.02937698E+00
4926.7998       8.06550217E+00
4928.2002       8.09567261E+00
4929.6001       8.10718536E+00
4931.0000       8.11750698E+00
4932.3999       8.09487915E+00
4933.7998       8.06947231E+00
4935.2002       8.07066345E+00
4936.6001       8.07185364E+00
4938.0000       8.03175831E+00
4939.3999       8.01746750E+00
4940.7998       8.03811073E+00
4942.2002       8.06272316E+00
4943.6001       8.09408474E+00
4945.0000       8.10559750E+00
4946.3999       8.10956764E+00
4947.7998       8.10321522E+00
4949.2002       8.12425613E+00
4950.6001       8.13537121E+00
4952.0000       8.13021088E+00
4953.3999       8.11393452E+00
4954.7998       8.09607029E+00
4956.2002       8.06232643E+00
4957.6001       7.99603033E+00
4959.0000       7.98531151E+00
4960.3999       8.03096485E+00
4961.7998       8.07145691E+00
4963.2002       8.08455753E+00
4964.6001       8.08654213E+00
4966.0000       8.08257294E+00
4967.3999       8.07264805E+00
4968.7998       8.05478382E+00
4970.2002       8.04684448E+00
4971.6001       8.06272316E+00
4973.0000       8.07463264E+00
4974.3999       8.08336639E+00
4975.7998       8.09329128E+00
4977.2002       8.09329128E+00
4978.6001       8.08257294E+00
4980.0000       8.05875397E+00
4981.3999       8.02381897E+00
4982.7998       7.97459316E+00
4984.2002       7.93370390E+00
4985.6001       7.94442225E+00
4987.0000       8.00158787E+00
4988.3999       8.05240154E+00
4989.7998       8.07383919E+00
4991.2002       8.07026577E+00
4992.6001       8.05438709E+00
4994.0000       8.04882908E+00
4995.3999       8.05875397E+00
4996.7998       8.06232643E+00
4998.2002       8.04366779E+00
4999.6001       7.98015070E+00
5001.0000       7.91226673E+00
5002.3999       7.92457342E+00
5003.7998       7.95275879E+00
5005.2002       7.96149254E+00
5006.6001       7.94720125E+00
5008.0000       7.94362831E+00
5009.3999       7.97419596E+00
5010.7998       8.00238228E+00
5012.2002       7.99642706E+00
5013.6001       7.98173904E+00
5015.0000       7.97022629E+00
5016.3999       7.96625662E+00
5017.7998       7.96268368E+00
5019.2002       7.95553780E+00
5020.6001       7.98054790E+00
5022.0000       7.99364853E+00
5023.3999       8.01548195E+00
5024.7998       8.04247665E+00
5026.2002       8.05081367E+00
5027.6001       8.04049206E+00
5029.0000       8.01429176E+00
5030.3999       8.02620125E+00
5031.7998       8.06748676E+00
5033.2002       8.07979393E+00
5034.6001       8.06510544E+00
5036.0000       8.03493500E+00
5037.3999       8.00635147E+00
5038.7998       7.99285412E+00
5040.2002       7.96030188E+00
5041.6001       7.92338228E+00
5043.0000       7.93449783E+00
5044.3999       7.98451757E+00
5045.7998       8.04207993E+00
5047.2002       8.05875397E+00
5048.6001       8.03255272E+00
5050.0000       8.01508522E+00
5051.3999       8.00238228E+00
5052.7998       8.00714588E+00
5054.2002       8.02620125E+00
5055.6001       8.05716515E+00
5057.0000       8.06550217E+00
5058.3999       8.06629658E+00
5059.7998       8.08336639E+00
5061.2002       8.10520077E+00
5062.6001       8.10678864E+00
5064.0000       8.10123062E+00
5065.3999       8.04882908E+00
5066.7998       8.01429176E+00
5068.2002       8.01349735E+00
5069.6001       8.03811073E+00
5071.0000       8.04763794E+00
5072.3999       8.04168320E+00
5073.7998       8.03056812E+00
5075.2002       8.01587963E+00
5076.6001       8.00913048E+00
5078.0000       8.00238228E+00
5079.3999       7.97538710E+00
5080.7998       7.94720125E+00
5082.2002       7.95077419E+00
5083.6001       7.97379923E+00
5085.0000       7.99285412E+00
5086.3999       8.00754261E+00
5087.7998       8.02381897E+00
5089.2002       8.03731632E+00
5090.6001       8.03771305E+00
5092.0000       8.04128647E+00
5093.3999       8.05398941E+00
5094.7998       8.06550217E+00
5096.2002       8.06510544E+00
5097.6001       8.02699471E+00
5099.0000       7.98570871E+00
5100.3999       7.98729658E+00
5101.7998       8.02302551E+00
5103.2002       8.06391430E+00
5104.6001       8.06669331E+00
5106.0000       8.03890419E+00
5107.3999       8.01746750E+00
5108.7998       8.00595474E+00
5110.2002       8.00674915E+00
5111.6001       8.02302551E+00
5113.0000       8.04882908E+00
5114.3999       8.06709003E+00
5115.7998       8.08177853E+00
5117.2002       8.08019066E+00
5118.6001       8.08257294E+00
5120.0000       8.08852768E+00
5121.3999       8.06748676E+00
5122.7998       8.02898026E+00
5124.2002       7.98650265E+00
5125.6001       7.96030188E+00
5127.0000       7.95792007E+00
5128.3999       7.97379923E+00
5129.7998       7.98531151E+00
5131.2002       7.98928165E+00
5132.6001       7.98967838E+00
5134.0000       8.00317574E+00
5135.3999       8.01746750E+00
5136.7998       8.01190948E+00
5138.2002       7.97618103E+00
5139.6001       7.95593500E+00
5141.0000       7.94958305E+00
5142.3999       7.96546268E+00
5143.7998       7.97776890E+00
5145.2002       7.98531151E+00
5146.6001       7.98650265E+00
5148.0000       7.99047232E+00
5149.3999       8.00238228E+00
5150.7998       7.99801540E+00
5152.2002       7.99245739E+00
5153.6001       7.99880886E+00
5155.0000       8.00754261E+00
5156.3999       8.01707077E+00
5157.7998       8.04168320E+00
5159.2002       8.04287434E+00
5160.6001       8.01587963E+00
5162.0000       7.99007559E+00
5163.3999       7.96585941E+00
5164.7998       7.93052816E+00
5166.2002       7.85748291E+00
5167.6001       7.78602600E+00
5169.0000       7.77133799E+00
5170.3999       7.79277515E+00
5171.7998       7.78801107E+00
5173.2002       7.78205633E+00
5174.6001       7.85391045E+00
5176.0000       7.92854309E+00
5177.3999       7.98412085E+00
5178.7998       8.00952721E+00
5180.2002       7.99166346E+00
5181.6001       7.91504574E+00
5183.0000       7.82850361E+00
5184.3999       7.79872990E+00
5185.7998       7.84001589E+00
5187.2002       7.92576408E+00
5188.6001       7.96665335E+00
5190.0000       7.97300529E+00
5191.3999       7.94998026E+00
5192.7998       7.93807077E+00
5194.2002       7.95553780E+00
5195.6001       7.96149254E+00
5197.0000       7.98213577E+00
5198.3999       8.00833702E+00
5199.7998       8.02421570E+00
5201.2002       8.03731632E+00
5202.6001       8.02183437E+00
5204.0000       7.99841213E+00
5205.3999       7.97816610E+00
5206.7998       7.95950794E+00
5208.2002       7.95752287E+00
5209.6001       7.97260809E+00
5211.0000       8.00436687E+00
5212.3999       8.02699471E+00
5213.7998       8.02977371E+00
5215.2002       7.99841213E+00
5216.6001       7.98094463E+00
5218.0000       8.00000000E+00
5219.3999       8.02898026E+00
5220.7998       8.04247665E+00
5222.2002       8.03493500E+00
5223.6001       8.00516129E+00
5225.0000       7.95752287E+00
5226.3999       7.90829706E+00
5227.7998       7.89479971E+00
5229.2002       7.93410110E+00
5230.6001       7.96744728E+00
5232.0000       7.96784449E+00
5233.3999       7.97141743E+00
5234.7998       7.97657824E+00
5236.2002       7.99722099E+00
5237.6001       8.03811073E+00
5239.0000       8.05676842E+00
5240.3999       8.05915070E+00
5241.7998       8.04605007E+00
5243.2002       8.05279922E+00
5244.6001       8.08217525E+00
5246.0000       8.06589890E+00
5247.3999       8.03771305E+00
5248.7998       8.01984882E+00
5250.2002       8.00873375E+00
5251.6001       8.02421570E+00
5253.0000       8.02620125E+00
5254.3999       8.02739143E+00
5255.7998       8.03255272E+00
5257.2002       8.05160809E+00
5258.6001       8.05398941E+00
5260.0000       8.02937698E+00
5261.3999       7.97896004E+00
5262.7998       7.90750313E+00
5264.2002       7.85549831E+00
5265.6001       7.84080982E+00
5267.0000       7.83644295E+00
5268.3999       7.82850361E+00
5269.7998       7.82493067E+00
5271.2002       7.85788012E+00
5272.6001       7.89678431E+00
5274.0000       7.91980934E+00
5275.3999       7.93687963E+00
5276.7998       7.97975397E+00
5278.2002       8.00952721E+00
5279.6001       8.01310062E+00
5281.0000       8.00000000E+00
5282.3999       7.96466875E+00
5283.7998       7.95196533E+00
5285.2002       7.98054790E+00
5286.6001       8.02381897E+00
5288.0000       8.05518055E+00
5289.3999       8.07264805E+00
5290.7998       8.07820606E+00
5292.2002       8.06748676E+00
5293.6001       8.05438709E+00
5295.0000       8.03612518E+00
5296.3999       8.00238228E+00
5297.7998       7.97379923E+00
5299.2002       7.97737217E+00
5300.6001       7.99603033E+00
5302.0000       8.00754261E+00
5303.3999       8.01587963E+00
5304.7998       8.02977371E+00
5306.2002       8.03771305E+00
5307.6001       8.04724121E+00
5309.0000       8.06550217E+00
5310.3999       8.07542706E+00
5311.7998       8.07066345E+00
5313.2002       8.06629658E+00
5314.6001       8.05597496E+00
5316.0000       8.03691959E+00
5317.3999       8.02342224E+00
5318.7998       8.02024651E+00
5320.2002       8.02024651E+00
5321.6001       8.01151276E+00
5323.0000       7.98967838E+00
5324.3999       7.96824121E+00
5325.7998       7.93926144E+00
5327.2002       7.89082956E+00
5328.6001       7.88685989E+00
5330.0000       7.91861868E+00
5331.3999       7.96427155E+00
5332.7998       7.99245739E+00
5334.2002       8.02223110E+00
5335.6001       8.03691959E+00
5337.0000       8.03294945E+00
5338.3999       8.00873375E+00
5339.7998       7.99007559E+00
5341.2002       7.99880886E+00
5342.6001       8.01707077E+00
5344.0000       8.02977371E+00
5345.3999       8.02778912E+00
5346.7998       8.01746750E+00
5348.2002       8.00516129E+00
5349.6001       8.00119114E+00
5351.0000       8.00952721E+00
5352.3999       8.02421570E+00
5353.7998       8.04406548E+00
5355.2002       8.05795956E+00
5356.6001       8.06907463E+00
5358.0000       8.07264805E+00
5359.3999       8.06153202E+00
5360.7998       8.05160809E+00
5362.2002       8.03175831E+00
5363.6001       8.01151276E+00
5365.0000       8.00198460E+00
5366.3999       7.98531151E+00
5367.7998       7.96744728E+00
5369.2002       7.94204044E+00
5370.6001       7.91901541E+00
5372.0000       7.94442225E+00
5373.3999       7.98610544E+00
5374.7998       8.01905537E+00
5376.2002       8.03056812E+00
5377.6001       8.02421570E+00
5379.0000       8.02223110E+00
5380.3999       8.01032162E+00
5381.7998       7.99245739E+00
5383.2002       7.99325132E+00
5384.6001       8.00595474E+00
5386.0000       8.01707077E+00
5387.3999       8.01627636E+00
5388.7998       8.00635147E+00
5390.2002       7.98967838E+00
5391.6001       7.98173904E+00
5393.0000       7.97340202E+00
5394.3999       7.96427155E+00
5395.7998       7.95911074E+00
5397.2002       7.94998026E+00
5398.6001       7.94640732E+00
5400.0000       7.96387482E+00
5401.3999       7.98015070E+00
5402.7998       7.96149254E+00
5404.2002       7.92497015E+00
5405.6001       7.89757824E+00
5407.0000       7.91742754E+00
5408.3999       7.94243765E+00
5409.7998       7.95315599E+00
5411.2002       7.95950794E+00
5412.6001       7.97141743E+00
5414.0000       7.98134184E+00
5415.3999       7.98531151E+00
5416.7998       7.99801540E+00
5418.2002       8.00198460E+00
5419.6001       8.00516129E+00
5421.0000       8.01151276E+00
5422.3999       7.99880886E+00
5423.7998       7.97816610E+00
5425.2002       7.98253298E+00
5426.6001       8.01349735E+00
5428.0000       8.01151276E+00
5429.3999       7.99166346E+00
5430.7998       7.97697496E+00
5432.2002       7.98253298E+00
5433.6001       7.96943235E+00
5435.0000       7.96665335E+00
5436.3999       7.98491478E+00
5437.7998       8.01429176E+00
5439.2002       8.02421570E+00
5440.6001       8.03533173E+00
5442.0000       8.03850746E+00
5443.3999       8.02381897E+00
5444.7998       7.99801540E+00
5446.2002       7.97459316E+00
5447.6001       7.98054790E+00
5449.0000       8.01945210E+00
5450.3999       8.03056812E+00
5451.7998       8.02818584E+00
5453.2002       8.01230621E+00
5454.6001       7.98134184E+00
5456.0000       7.96982956E+00
5457.3999       7.98967838E+00
5458.7998       8.01945210E+00
5460.2002       8.03175831E+00
5461.6001       8.00833702E+00
5463.0000       7.98213577E+00
5464.3999       7.96863842E+00
5465.7998       7.97102022E+00
5467.2002       7.98253298E+00
5468.6001       7.99523640E+00
5470.0000       8.00198460E+00
5471.3999       8.00158787E+00
5472.7998       7.99682426E+00
5474.2002       7.98332691E+00
5475.6001       7.96308041E+00
5477.0000       7.94521618E+00
5478.3999       7.94640732E+00
5479.7998       7.96347761E+00
5481.2002       7.97856283E+00
5482.6001       7.99166346E+00
5484.0000       8.00913048E+00
5485.3999       8.02818584E+00
5486.7998       8.02977371E+00
5488.2002       8.01548195E+00
5489.6001       8.00635147E+00
5491.0000       8.01627636E+00
5492.3999       8.02580357E+00
5493.7998       8.01151276E+00
5495.2002       7.99841213E+00
5496.6001       7.98650265E+00
5498.0000       7.99166346E+00
5499.3999       8.00119114E+00
5500.7998       8.00436687E+00
5502.2002       7.99483919E+00
5503.6001       7.97975397E+00
5505.0000       7.97498989E+00
5506.3999       7.97102022E+00
5507.7998       7.97459316E+00
5509.2002       7.99007559E+00
5510.6001       7.98769379E+00
5512.0000       7.97896004E+00
5513.3999       7.97062302E+00
5514.7998       7.97062302E+00
5516.2002       7.98332691E+00
5517.6001       7.99722099E+00
5519.0000       8.00397015E+00
5520.3999       8.00555801E+00
5521.7998       8.00873375E+00
5523.2002       8.01587963E+00
5524.6001       8.01587963E+00
5526.0000       7.99761820E+00
5527.3999       7.96863842E+00
5528.7998       7.94640732E+00
5530.2002       7.94402552E+00
5531.6001       7.96069860E+00
5533.0000       7.98967838E+00
5534.3999       8.00277901E+00
5535.7998       8.00397015E+00
5537.2002       8.00992489E+00
5538.6001       8.00833702E+00
5540.0000       8.01111603E+00
5541.3999       8.01905537E+00
5542.7998       8.01627636E+00
5544.2002       8.00873375E+00
5545.6001       8.00595474E+00
5547.0000       8.01071835E+00
5548.3999       8.01151276E+00
5549.7998       8.01667309E+00
5551.2002       8.02223110E+00
5552.6001       8.01786423E+00
5554.0000       8.00793934E+00
5555.3999       8.00000000E+00
5556.7998       8.00000000E+00
5558.2002       8.00754261E+00
5559.6001       8.01310062E+00
5561.0000       8.00992489E+00
5562.3999       7.99245739E+00
5563.7998       7.96705055E+00
5565.2002       7.95831680E+00
5566.6001       7.95474386E+00
5568.0000       7.95196533E+00
5569.3999       7.94362831E+00
5570.7998       7.94084978E+00
5572.2002       7.93727684E+00
5573.6001       7.93807077E+00
5575.0000       7.94680405E+00
5576.3999       7.96188974E+00
5577.7998       7.96784449E+00
5579.2002       7.96943235E+00
5580.6001       7.97419596E+00
5582.0000       7.97578430E+00
5583.3999       7.98094463E+00
5584.7998       7.97737217E+00
5586.2002       7.95911074E+00
5587.6001       7.91941261E+00
5589.0000       7.90154839E+00
5590.3999       7.90512085E+00
5591.7998       7.92020655E+00
5593.2002       7.93965864E+00
5594.6001       7.95275879E+00
5596.0000       7.96308041E+00
5597.3999       7.97300529E+00
5598.7998       7.96943235E+00
5600.2002       7.94402552E+00
5601.6001       7.91941261E+00
5603.0000       7.91147280E+00
5604.3999       7.91782475E+00
5605.7998       7.95831680E+00
5607.2002       8.00397015E+00
5608.6001       8.01389408E+00
5610.0000       8.01071835E+00
5611.3999       7.99960327E+00
5612.7998       7.99047232E+00
5614.2002       7.97776890E+00
5615.6001       7.93568897E+00
5617.0000       7.89757824E+00
5618.3999       7.90591526E+00
5619.7998       7.94402552E+00
5621.2002       7.96308041E+00
5622.6001       7.97062302E+00
5624.0000       7.96228647E+00
5625.3999       7.94918633E+00
5626.7998       7.95871401E+00
5628.2002       7.97340202E+00
5629.6001       7.98054790E+00
5631.0000       7.97975397E+00
5632.3999       7.99563313E+00
5633.7998       7.99722099E+00
5635.2002       7.98689938E+00
5636.6001       7.97141743E+00
5638.0000       7.96546268E+00
5639.3999       7.96903515E+00
5640.7998       7.97260809E+00
5642.2002       7.96903515E+00
5643.6001       7.95911074E+00
5645.0000       7.95831680E+00
5646.3999       7.96744728E+00
5647.7998       7.98451757E+00
5649.2002       7.98491478E+00
5650.6001       7.97776890E+00
5652.0000       7.97260809E+00
5653.3999       7.96943235E+00
5654.7998       7.95792007E+00
5656.2002       7.94283438E+00
5657.6001       7.93251276E+00
5659.0000       7.92576408E+00
5660.3999       7.91980934E+00
5661.7998       7.92179441E+00
5663.2002       7.92576408E+00
5664.6001       7.92973423E+00
5666.0000       7.93926144E+00
5667.3999       7.95037699E+00
5668.7998       7.95633221E+00
5670.2002       7.96228647E+00
5671.6001       7.97379923E+00
5673.0000       7.98292971E+00
5674.3999       7.98689938E+00
5675.7998       7.98610544E+00
5677.2002       7.98650265E+00
5678.6001       7.98173904E+00
5680.0000       7.97776890E+00
5681.3999       7.98292971E+00
5682.7998       7.97300529E+00
5684.2002       7.96109581E+00
5685.6001       7.95037699E+00
5687.0000       7.94601059E+00
5688.3999       7.94481945E+00
5689.7998       7.94402552E+00
5691.2002       7.95156813E+00
5692.6001       7.95950794E+00
5694.0000       7.95434713E+00
5695.3999       7.95633221E+00
5696.7998       7.95990467E+00
5698.2002       7.96466875E+00
5699.6001       7.96149254E+00
5701.0000       7.95434713E+00
5702.3999       7.94998026E+00
5703.7998       7.94601059E+00
5705.2002       7.94601059E+00
5706.6001       7.93449783E+00
5708.0000       7.91464853E+00
5709.3999       7.89559364E+00
5710.7998       7.87812614E+00
5712.2002       7.87931728E+00
5713.6001       7.90750313E+00
5715.0000       7.93568897E+00
5716.3999       7.95315599E+00
5717.7998       7.96308041E+00
5719.2002       7.97181416E+00
5720.6001       7.98134184E+00
5722.0000       7.99007559E+00
5723.3999       7.99722099E+00
5724.7998       7.99841213E+00
5726.2002       7.99325132E+00
5727.6001       7.98809052E+00
5729.0000       7.98809052E+00
5730.3999       7.99325132E+00
5731.7998       7.98332691E+00
5733.2002       7.96784449E+00
5734.6001       7.97260809E+00
5736.0000       7.98054790E+00
5737.3999       7.98451757E+00
5738.7998       7.98729658E+00
5740.2002       7.99126625E+00
5741.6001       7.98253298E+00
5743.0000       7.97856283E+00
5744.3999       7.98570871E+00
5745.7998       8.00079346E+00
5747.2002       7.99166346E+00
5748.6001       7.97697496E+00
5750.0000       7.96863842E+00
5751.3999       7.97022629E+00
5752.7998       7.96308041E+00
5754.2002       7.94601059E+00
5755.6001       7.93767357E+00
5757.0000       7.94481945E+00
5758.3999       7.95593500E+00
5759.7998       7.95196533E+00
5761.2002       7.94839239E+00
5762.6001       7.94164371E+00
5764.0000       7.93608570E+00
5765.3999       7.95394993E+00
5766.7998       7.97340202E+00
5768.2002       7.97816610E+00
5769.6001       7.97062302E+00
5771.0000       7.96943235E+00
5772.3999       7.97221136E+00
5773.7998       7.98213577E+00
5775.2002       7.98015070E+00
5776.6001       7.97102022E+00
5778.0000       7.97062302E+00
5779.3999       7.96585941E+00
5780.7998       7.93886471E+00
5782.2002       7.91425180E+00
5783.6001       7.90750313E+00
5785.0000       7.90273905E+00
5786.3999       7.90115118E+00
5787.7998       7.91425180E+00
5789.2002       7.93330669E+00
5790.6001       7.94402552E+00
5792.0000       7.94402552E+00
5793.3999       7.94839239E+00
5794.7998       7.95871401E+00
5796.2002       7.96188974E+00
5797.6001       7.95871401E+00
5799.0000       7.95514107E+00
5800.3999       7.96109581E+00
5801.7998       7.97221136E+00
5803.2002       7.97737217E+00
5804.6001       7.96308041E+00
5806.0000       7.95156813E+00
5807.3999       7.95871401E+00
5808.7998       7.97102022E+00
5810.2002       7.97340202E+00
5811.6001       7.97776890E+00
5813.0000       7.98015070E+00
5814.3999       7.97181416E+00
5815.7998       7.95553780E+00
5817.2002       7.95196533E+00
5818.6001       7.96268368E+00
5820.0000       7.97856283E+00
5821.3999       7.98531151E+00
5822.7998       7.98848772E+00
5824.2002       7.99801540E+00
5825.6001       8.00158787E+00
5827.0000       8.00754261E+00
5828.3999       8.00595474E+00
5829.7998       8.01071835E+00
5831.2002       8.01587963E+00
5832.6001       8.01508522E+00
5834.0000       8.00635147E+00
5835.3999       7.99523640E+00
5836.7998       7.98689938E+00
5838.2002       7.99047232E+00
5839.6001       7.99603033E+00
5841.0000       7.99285412E+00
5842.3999       7.98134184E+00
5843.7998       7.97260809E+00
5845.2002       7.97776890E+00
5846.6001       7.98372364E+00
5848.0000       7.98451757E+00
5849.3999       7.98412085E+00
5850.7998       7.98213577E+00
5852.2002       7.96705055E+00
5853.6001       7.95672894E+00
5855.0000       7.96069860E+00
5856.3999       7.95394993E+00
5857.7998       7.94402552E+00
5859.2002       7.94005537E+00
5860.6001       7.94045258E+00
5862.0000       7.95236206E+00
5863.3999       7.96228647E+00
5864.7998       7.96705055E+00
5866.2002       7.97102022E+00
5867.6001       7.97578430E+00
5869.0000       7.97737217E+00
5870.3999       7.97896004E+00
5871.7998       7.97816610E+00
5873.2002       7.96665335E+00
5874.6001       7.96903515E+00
5876.0000       7.96387482E+00
5877.3999       7.95593500E+00
5878.7998       7.94481945E+00
5880.2002       7.94283438E+00
5881.6001       7.95752287E+00
5883.0000       7.95394993E+00
5884.3999       7.94998026E+00
5885.7998       7.94878912E+00
5887.2002       7.92735195E+00
5888.6001       7.84795570E+00
5890.0000       7.79595089E+00
5891.3999       7.81659412E+00
5892.7998       7.85271931E+00
5894.2002       7.86026192E+00
5895.6001       7.83644295E+00
5897.0000       7.87415648E+00
5898.3999       7.90948772E+00
5899.7998       7.92814636E+00
5901.2002       7.94640732E+00
5902.6001       7.96347761E+00
5904.0000       7.97419596E+00
5905.3999       7.96308041E+00
5906.7998       7.95990467E+00
5908.2002       7.97419596E+00
5909.6001       7.98610544E+00
5911.0000       7.98570871E+00
5912.3999       7.96824121E+00
5913.7998       7.94918633E+00
5915.2002       7.94521618E+00
5916.6001       7.95037699E+00
5918.0000       7.95990467E+00
5919.3999       7.97697496E+00
5920.7998       7.98491478E+00
5922.2002       7.97697496E+00
5923.6001       7.97300529E+00
5925.0000       7.97697496E+00
5926.3999       7.97657824E+00
5927.7998       7.95752287E+00
5929.2002       7.93370390E+00
5930.6001       7.92576408E+00
5932.0000       7.94084978E+00
5933.3999       7.95077419E+00
5934.7998       7.94759846E+00
5936.2002       7.95156813E+00
5937.6001       7.95315599E+00
5939.0000       7.95156813E+00
5940.3999       7.94243765E+00
5941.7998       7.94124651E+00
5943.2002       7.94839239E+00
5944.6001       7.94878912E+00
5946.0000       7.95553780E+00
5947.3999       7.94720125E+00
5948.7998       7.94164371E+00
5950.2002       7.95394993E+00
5951.6001       7.95633221E+00
5953.0000       7.94481945E+00
5954.3999       7.94243765E+00
5955.7998       7.94402552E+00
5957.2002       7.93846750E+00
5958.6001       7.94402552E+00
5960.0000       7.94283438E+00
5961.3999       7.93965864E+00
5962.7998       7.94442225E+00
5964.2002       7.94362831E+00
5965.6001       7.94243765E+00
5967.0000       7.94799519E+00
5968.3999       7.95196533E+00
5969.7998       7.95196533E+00
5971.2002       7.95117092E+00
5972.6001       7.95156813E+00
5974.0000       7.93846750E+00
5975.3999       7.91663361E+00
5976.7998       7.91663361E+00
5978.2002       7.92576408E+00
5979.6001       7.93052816E+00
5981.0000       7.92814636E+00
5982.3999       7.91385460E+00
5983.7998       7.89479971E+00
5985.2002       7.89003563E+00
5986.6001       7.91067886E+00
5988.0000       7.92258835E+00
5989.3999       7.92298508E+00
5990.7998       7.92377949E+00
5992.2002       7.92774916E+00
5993.6001       7.94124651E+00
5995.0000       7.94045258E+00
5996.3999       7.92377949E+00
5997.7998       7.91623640E+00
5999.2002       7.91980934E+00
6000.6001       7.91980934E+00
6002.0000       7.91623640E+00
6003.3999       7.90869379E+00
6004.7998       7.90909100E+00
6006.2002       7.90472412E+00
6007.6001       7.88408089E+00
6009.0000       7.89043283E+00
6010.3999       7.90154839E+00
6011.7998       7.89757824E+00
6013.2002       7.89122677E+00
6014.6001       7.89043283E+00
6016.0000       7.88249302E+00
6017.3999       7.88011122E+00
6018.7998       7.87336254E+00
6020.2002       7.86462879E+00
6021.6001       7.86701059E+00
6023.0000       7.87931728E+00
6024.3999       7.88566875E+00
6025.7998       7.88050842E+00
6027.2002       7.88527203E+00
6028.6001       7.89519644E+00
6030.0000       7.89757824E+00
6031.3999       7.90273905E+00
6032.7998       7.91822147E+00
6034.2002       7.91425180E+00
6035.6001       7.90750313E+00
6037.0000       7.90948772E+00
6038.3999       7.90909100E+00
6039.7998       7.91028214E+00
6041.2002       7.91306067E+00
6042.6001       7.91385460E+00
6044.0000       7.91385460E+00
6045.3999       7.91147280E+00
6046.7998       7.90988493E+00
6048.2002       7.91822147E+00
6049.6001       7.91266394E+00
6051.0000       7.90194511E+00
6052.3999       7.89043283E+00
6053.7998       7.88130188E+00
6055.2002       7.87812614E+00
6056.6001       7.89122677E+00
6058.0000       7.91226673E+00
6059.3999       7.92020655E+00
6060.7998       7.91663361E+00
6062.2002       7.90909100E+00
6063.6001       7.89678431E+00
6065.0000       7.88963890E+00
6066.3999       7.89519644E+00
6067.7998       7.90631199E+00
6069.2002       7.91067886E+00
6070.6001       7.90909100E+00
6072.0000       7.90988493E+00
6073.3999       7.90313625E+00
6074.7998       7.88963890E+00
6076.2002       7.87772942E+00
6077.6001       7.87098074E+00
6079.0000       7.86740780E+00
6080.3999       7.87296534E+00
6081.7998       7.87812614E+00
6083.2002       7.87574434E+00
6084.6001       7.87931728E+00
6086.0000       7.88130188E+00
6087.3999       7.88408089E+00
6088.7998       7.87614155E+00
6090.2002       7.87018681E+00
6091.6001       7.87653828E+00
6093.0000       7.87534761E+00
6094.3999       7.87018681E+00
6095.7998       7.86542273E+00
6097.2002       7.86026192E+00
6098.6001       7.85867405E+00
6100.0000       7.85430717E+00
6101.3999       7.84160376E+00
6102.7998       7.83167934E+00
6104.2002       7.83763409E+00
6105.6001       7.84954357E+00
6107.0000       7.85788012E+00
6108.3999       7.87137747E+00
6109.7998       7.87971401E+00
6111.2002       7.87892008E+00
6112.6001       7.88328695E+00
6114.0000       7.88289022E+00
6115.3999       7.87296534E+00
6116.7998       7.86740780E+00
6118.2002       7.86939240E+00
6119.6001       7.86621666E+00
6121.0000       7.84755850E+00
6122.3999       7.83287001E+00
6123.7998       7.84636784E+00
6125.2002       7.86264420E+00
6126.6001       7.86423206E+00
6128.0000       7.87058353E+00
6129.3999       7.86780453E+00
6130.7998       7.86264420E+00
6132.2002       7.86701059E+00
6133.6001       7.86939240E+00
6135.0000       7.84001589E+00
6136.3999       7.79753876E+00
6137.7998       7.79118681E+00
6139.2002       7.82929754E+00
6140.6001       7.85668898E+00
6142.0000       7.85430717E+00
6143.3999       7.84517670E+00
6144.7998       7.85033751E+00
6146.2002       7.85748291E+00
6147.6001       7.86184978E+00
6149.0000       7.86780453E+00
6150.3999       7.87098074E+00
6151.7998       7.87058353E+00
6153.2002       7.86701059E+00
6154.6001       7.84914637E+00
6156.0000       7.84716177E+00
6157.3999       7.85152864E+00
6158.7998       7.84597063E+00
6160.2002       7.83009148E+00
6161.6001       7.80190563E+00
6163.0000       7.78642321E+00
6164.3999       7.79277515E+00
6165.7998       7.81143332E+00
6167.2002       7.82254887E+00
6168.6001       7.81579971E+00
6170.0000       7.80587530E+00
6171.3999       7.81341791E+00
6172.7998       7.83684015E+00
6174.2002       7.84755850E+00
6175.6001       7.84517670E+00
6177.0000       7.85033751E+00
6178.3999       7.86065912E+00
6179.7998       7.87098074E+00
6181.2002       7.87534761E+00
6182.6001       7.86939240E+00
6184.0000       7.86502600E+00
6185.3999       7.86065912E+00
6186.7998       7.85430717E+00
6188.2002       7.85113144E+00
6189.6001       7.85113144E+00
6191.0000       7.85033751E+00
6192.3999       7.84795570E+00
6193.7998       7.85907125E+00
6195.2002       7.86780453E+00
6196.6001       7.88368416E+00
6198.0000       7.90075445E+00
6199.3999       7.89797544E+00
6200.7998       7.88090515E+00
6202.2002       7.87574434E+00
6203.6001       7.88884497E+00
6205.0000       7.88606596E+00
6206.3999       7.88685989E+00
6207.7998       7.89559364E+00
6209.2002       7.89202070E+00
6210.6001       7.88963890E+00
6212.0000       7.88566875E+00
6213.3999       7.86899567E+00
6214.7998       7.85311651E+00
6216.2002       7.84874964E+00
6217.6001       7.85391045E+00
6219.0000       7.85510111E+00
6220.3999       7.85232258E+00
6221.7998       7.85192537E+00
6223.2002       7.85391045E+00
6224.6001       7.85946798E+00
6226.0000       7.87177467E+00
6227.3999       7.87733221E+00
6228.7998       7.86621666E+00
6230.2002       7.83803082E+00
6231.6001       7.82016659E+00
6233.0000       7.83207607E+00
6234.3999       7.85113144E+00
6235.7998       7.85867405E+00
6237.2002       7.85232258E+00
6238.6001       7.84041309E+00
6240.0000       7.83525229E+00
6241.3999       7.83922195E+00
6242.7998       7.83803082E+00
6244.2002       7.82810640E+00
6245.6001       7.81976986E+00
6247.0000       7.82254887E+00
6248.3999       7.83842802E+00
6249.7998       7.85629225E+00
6251.2002       7.85629225E+00
6252.6001       7.83564901E+00
6254.0000       7.81818199E+00
6255.3999       7.81500578E+00
6256.7998       7.82175446E+00
6258.2002       7.83207607E+00
6259.6001       7.84160376E+00
6261.0000       7.84041309E+00
6262.3999       7.80706644E+00
6263.7998       7.77967453E+00
6265.2002       7.80786037E+00
6266.6001       7.84557343E+00
6268.0000       7.86780453E+00
6269.3999       7.87217140E+00
6270.7998       7.85788012E+00
6272.2002       7.84954357E+00
6273.6001       7.85232258E+00
6275.0000       7.85470438E+00
6276.3999       7.83961868E+00
6277.7998       7.82572460E+00
6279.2002       7.82254887E+00
6280.6001       7.81024218E+00
6282.0000       7.81262398E+00
6283.3999       7.82890034E+00
6284.7998       7.84676456E+00
6286.2002       7.86502600E+00
6287.6001       7.87614155E+00
6289.0000       7.87931728E+00
6290.3999       7.86542273E+00
6291.7998       7.85907125E+00
6293.2002       7.86184978E+00
6294.6001       7.86224699E+00
6296.0000       7.86264420E+00
6297.3999       7.85470438E+00
6298.7998       7.83564901E+00
6300.2002       7.81302118E+00
6301.6001       7.80627251E+00
6303.0000       7.81222725E+00
6304.3999       7.82890034E+00
6305.7998       7.84438276E+00
6307.2002       7.85232258E+00
6308.6001       7.85510111E+00
6310.0000       7.85152864E+00
6311.3999       7.84636784E+00
6312.7998       7.83326721E+00
6314.2002       7.81302118E+00
6315.6001       7.80468464E+00
6317.0000       7.80389023E+00
6318.3999       7.79793549E+00
6319.7998       7.79872990E+00
6321.2002       7.81500578E+00
6322.6001       7.83326721E+00
6324.0000       7.84914637E+00
6325.3999       7.86105585E+00
6326.7998       7.85549831E+00
6328.2002       7.84080982E+00
6329.6001       7.83763409E+00
6331.0000       7.84239769E+00
6332.3999       7.84517670E+00
6333.7998       7.84517670E+00
6335.2002       7.83009148E+00
6336.6001       7.81579971E+00
6338.0000       7.81341791E+00
6339.3999       7.82056379E+00
6340.7998       7.82929754E+00
6342.2002       7.83326721E+00
6343.6001       7.83406115E+00
6345.0000       7.83604622E+00
6346.3999       7.84557343E+00
6347.7998       7.84874964E+00
6349.2002       7.83167934E+00
6350.6001       7.83723688E+00
6352.0000       7.84994030E+00
6353.3999       7.84517670E+00
6354.7998       7.82929754E+00
6356.2002       7.82096100E+00
6357.6001       7.82215166E+00
6359.0000       7.81421185E+00
6360.3999       7.81183004E+00
6361.7998       7.80984497E+00
6363.2002       7.80786037E+00
6364.6001       7.81103611E+00
6366.0000       7.81460905E+00
6367.3999       7.82453346E+00
6368.7998       7.83604622E+00
6370.2002       7.83763409E+00
6371.6001       7.83882523E+00
6373.0000       7.84477997E+00
6374.3999       7.84994030E+00
6375.7998       7.84795570E+00
6377.2002       7.84200096E+00
6378.6001       7.83088541E+00
6380.0000       7.81699085E+00
6381.3999       7.81341791E+00
6382.7998       7.82334280E+00
6384.2002       7.83366442E+00
6385.6001       7.83247328E+00
6387.0000       7.82572460E+00
6388.3999       7.82810640E+00
6389.7998       7.83922195E+00
6391.2002       7.83247328E+00
6392.6001       7.80627251E+00
6394.0000       7.79237795E+00
6395.3999       7.80031776E+00
6396.7998       7.81540298E+00
6398.2002       7.81579971E+00
6399.6001       7.79356861E+00
6401.0000       7.77848339E+00
6402.3999       7.79158401E+00
6403.7998       7.81619692E+00
6405.2002       7.82215166E+00
6406.6001       7.80786037E+00
6408.0000       7.79833269E+00
6409.3999       7.79833269E+00
6410.7998       7.79992056E+00
6412.2002       7.80190563E+00
6413.6001       7.80309677E+00
6415.0000       7.79317188E+00
6416.3999       7.78920221E+00
6417.7998       7.79595089E+00
6419.2002       7.79515696E+00
6420.6001       7.78443813E+00
6422.0000       7.79198074E+00
6423.3999       7.80905104E+00
6424.7998       7.82294559E+00
6426.2002       7.82850361E+00
6427.6001       7.82572460E+00
6429.0000       7.82135773E+00
6430.3999       7.81302118E+00
6431.7998       7.81024218E+00
6433.2002       7.81857872E+00
6434.6001       7.82612133E+00
6436.0000       7.82850361E+00
6437.3999       7.81976986E+00
6438.7998       7.80587530E+00
6440.2002       7.80746317E+00
6441.6001       7.82135773E+00
6443.0000       7.83247328E+00
6444.3999       7.83842802E+00
6445.7998       7.83961868E+00
6447.2002       7.83326721E+00
6448.6001       7.81778479E+00
6450.0000       7.80190563E+00
6451.3999       7.80230236E+00
6452.7998       7.81381512E+00
6454.2002       7.81341791E+00
6455.6001       7.79872990E+00
6457.0000       7.79118681E+00
6458.3999       7.79952383E+00
6459.7998       7.80865431E+00
6461.2002       7.79555368E+00
6462.6001       7.77213192E+00
6464.0000       7.77570438E+00
6465.3999       7.79833269E+00
6466.7998       7.81659412E+00
6468.2002       7.81897593E+00
6469.6001       7.81302118E+00
6471.0000       7.81341791E+00
6472.3999       7.80984497E+00
6473.7998       7.80468464E+00
6475.2002       7.80349350E+00
6476.6001       7.81183004E+00
6478.0000       7.81500578E+00
6479.3999       7.81778479E+00
6480.7998       7.82016659E+00
6482.2002       7.80627251E+00
6483.6001       7.80627251E+00
6485.0000       7.81421185E+00
6486.3999       7.82254887E+00
6487.7998       7.83406115E+00
6489.2002       7.82334280E+00
6490.6001       7.80468464E+00
6492.0000       7.78126240E+00
6493.3999       7.75744343E+00
6494.7998       7.74831295E+00
6496.2002       7.75148869E+00
6497.6001       7.76736784E+00
6499.0000       7.78245354E+00
6500.3999       7.79317188E+00
6501.7998       7.81222725E+00
6503.2002       7.82691574E+00
6504.6001       7.82651854E+00
6506.0000       7.82612133E+00
6507.3999       7.84041309E+00
6508.7998       7.84120703E+00
6510.2002       7.83684015E+00
6511.6001       7.83922195E+00
6513.0000       7.83723688E+00
6514.3999       7.82572460E+00
6515.7998       7.81540298E+00
6517.2002       7.81183004E+00
6518.6001       7.81540298E+00
6520.0000       7.82215166E+00
6521.3999       7.82770920E+00
6522.7998       7.83247328E+00
6524.2002       7.83763409E+00
6525.6001       7.83564901E+00
6527.0000       7.82413673E+00
6528.3999       7.82135773E+00
6529.7998       7.82572460E+00
6531.2002       7.82453346E+00
6532.6001       7.81976986E+00
6534.0000       7.81897593E+00
6535.3999       7.82056379E+00
6536.7998       7.82175446E+00
6538.2002       7.82532740E+00
6539.6001       7.82929754E+00
6541.0000       7.82969427E+00
6542.3999       7.83128214E+00
6543.7998       7.82969427E+00
6545.2002       7.81778479E+00
6546.6001       7.79872990E+00
6548.0000       7.79436302E+00
6549.3999       7.80190563E+00
6550.7998       7.80666924E+00
6552.2002       7.80031776E+00
6553.6001       7.79039288E+00
6555.0000       7.76577997E+00
6556.3999       7.74672508E+00
6557.7998       7.73521233E+00
6559.2002       7.71258450E+00
6560.6001       7.66534328E+00
6562.0000       7.59507751E+00
6563.3999       7.56808281E+00
6564.7998       7.62127829E+00
6566.2002       7.68519258E+00
6567.6001       7.72528791E+00
6569.0000       7.74077034E+00
6570.3999       7.74950361E+00
6571.7998       7.76260424E+00
6573.2002       7.76776505E+00
6574.6001       7.77094078E+00
6576.0000       7.78920221E+00
6577.3999       7.81143332E+00
6578.7998       7.81659412E+00
6580.2002       7.80944824E+00
6581.6001       7.80428743E+00
6583.0000       7.80627251E+00
6584.3999       7.81103611E+00
6585.7998       7.81699085E+00
6587.2002       7.82215166E+00
6588.6001       7.82096100E+00
6590.0000       7.81262398E+00
6591.3999       7.79793549E+00
6592.7998       7.78245354E+00
6594.2002       7.78046846E+00
6595.6001       7.79237795E+00
6597.0000       7.80389023E+00
6598.3999       7.81381512E+00
6599.7998       7.82175446E+00
6601.2002       7.82334280E+00
6602.6001       7.82493067E+00
6604.0000       7.82532740E+00
6605.3999       7.81619692E+00
6606.7998       7.80428743E+00
6608.2002       7.80190563E+00
6609.6001       7.81183004E+00
6611.0000       7.81579971E+00
6612.3999       7.81262398E+00
6613.7998       7.81143332E+00
6615.2002       7.81421185E+00
6616.6001       7.82056379E+00
6618.0000       7.81738806E+00
6619.3999       7.81103611E+00
6620.7998       7.81540298E+00
6622.2002       7.81143332E+00
6623.6001       7.81262398E+00
6625.0000       7.81183004E+00
6626.3999       7.80428743E+00
6627.7998       7.81143332E+00
6629.2002       7.81262398E+00
6630.6001       7.80309677E+00
6632.0000       7.78602600E+00
6633.3999       7.77133799E+00
6634.7998       7.77491093E+00
6636.2002       7.78880501E+00
6637.6001       7.79634762E+00
6639.0000       7.79595089E+00
6640.3999       7.79158401E+00
6641.7998       7.78880501E+00
6643.2002       7.78959894E+00
6644.6001       7.78007126E+00
6646.0000       7.78046846E+00
6647.3999       7.79237795E+00
6648.7998       7.80508137E+00
6650.2002       7.80944824E+00
6651.6001       7.80349350E+00
6653.0000       7.80031776E+00
6654.3999       7.80230236E+00
6655.7998       7.79555368E+00
6657.2002       7.79237795E+00
6658.6001       7.79833269E+00
6660.0000       7.79714203E+00
6661.3999       7.78443813E+00
6662.7998       7.76697111E+00
6664.2002       7.76697111E+00
6665.6001       7.78046846E+00
6667.0000       7.78324747E+00
6668.3999       7.78483534E+00
6669.7998       7.79277515E+00
6671.2002       7.79356861E+00
6672.6001       7.78364420E+00
6674.0000       7.77729273E+00
6675.3999       7.77054405E+00
6676.7998       7.76975012E+00
6678.2002       7.76419210E+00
6679.6001       7.76935291E+00
6681.0000       7.77848339E+00
6682.3999       7.77451372E+00
6683.7998       7.78562927E+00
6685.2002       7.78920221E+00
6686.6001       7.78761435E+00
6688.0000       7.79039288E+00
6689.3999       7.79356861E+00
6690.7998       7.79396582E+00
6692.2002       7.79039288E+00
6693.6001       7.77332258E+00
6695.0000       7.78007126E+00
6696.3999       7.77332258E+00
6697.7998       7.77094078E+00
6699.2002       7.78126240E+00
6700.6001       7.78642321E+00
6702.0000       7.78165960E+00
6703.3999       7.77570438E+00
6704.7998       7.77133799E+00
6706.2002       7.76617718E+00
6707.6001       7.76220703E+00
6709.0000       7.76022243E+00
6710.3999       7.76300144E+00
6711.7998       7.76498604E+00
6713.2002       7.76577997E+00
6714.6001       7.76379538E+00
6716.0000       7.75664949E+00
6717.3999       7.74870968E+00
6718.7998       7.74712181E+00
6720.2002       7.75545835E+00
6721.6001       7.76498604E+00
6723.0000       7.76736784E+00
6724.3999       7.77173471E+00
6725.7998       7.77491093E+00
6727.2002       7.77371979E+00
6728.6001       7.77014685E+00
6730.0000       7.76260424E+00
6731.3999       7.75942850E+00
6732.7998       7.76419210E+00
6734.2002       7.76935291E+00
6735.6001       7.77292585E+00
6737.0000       7.77610159E+00
6738.3999       7.77570438E+00
6739.7998       7.76975012E+00
6741.2002       7.76617718E+00
6742.6001       7.76260424E+00
6744.0000       7.76816177E+00
6745.3999       7.78523207E+00
6746.7998       7.78721714E+00
6748.2002       7.77292585E+00
6749.6001       7.75664949E+00
6751.0000       7.75942850E+00
6752.3999       7.76736784E+00
6753.7998       7.76736784E+00
6755.2002       7.76736784E+00
6756.6001       7.76538324E+00
6758.0000       7.76300144E+00
6759.3999       7.76300144E+00
6760.7998       7.76776505E+00
6762.2002       7.77213192E+00
6763.6001       7.78165960E+00
6765.0000       7.78562927E+00
6766.3999       7.78126240E+00
6767.7998       7.77332258E+00
6769.2002       7.76736784E+00
6770.6001       7.76498604E+00
6772.0000       7.76419210E+00
6773.3999       7.77054405E+00
6774.7998       7.77213192E+00
6776.2002       7.77491093E+00
6777.6001       7.78086567E+00
6779.0000       7.78245354E+00
6780.3999       7.77491093E+00
6781.7998       7.76260424E+00
6783.2002       7.75148869E+00
6784.6001       7.74751902E+00
6786.0000       7.75069475E+00
6787.3999       7.76379538E+00
6788.7998       7.77451372E+00
6790.2002       7.76736784E+00
6791.6001       7.75744343E+00
6793.0000       7.75585556E+00
6794.3999       7.75903130E+00
6795.7998       7.76498604E+00
6797.2002       7.76776505E+00
6798.6001       7.77054405E+00
6800.0000       7.77213192E+00
6801.3999       7.76339817E+00
6802.7998       7.75267982E+00
6804.2002       7.74990082E+00
6805.6001       7.75744343E+00
6807.0000       7.77133799E+00
6808.3999       7.77451372E+00
6809.7998       7.76975012E+00
6811.2002       7.76855898E+00
6812.6001       7.76855898E+00
6814.0000       7.76697111E+00
6815.3999       7.76260424E+00
6816.7998       7.75664949E+00
6818.2002       7.75426769E+00
6819.6001       7.74990082E+00
6821.0000       7.75228262E+00
6822.3999       7.76022243E+00
6823.7998       7.76379538E+00
6825.2002       7.76458931E+00
6826.6001       7.75664949E+00
6828.0000       7.74553394E+00
6829.3999       7.74870968E+00
6830.7998       7.75347376E+00
6832.2002       7.75069475E+00
6833.6001       7.75148869E+00
6835.0000       7.75069475E+00
6836.3999       7.74593115E+00
6837.7998       7.73997641E+00
6839.2002       7.72965479E+00
6840.6001       7.72131824E+00
6842.0000       7.71615696E+00
6843.3999       7.71615696E+00
6844.7998       7.72131824E+00
6846.2002       7.72727299E+00
6847.6001       7.73441839E+00
6849.0000       7.74275494E+00
6850.3999       7.74910688E+00
6851.7998       7.75148869E+00
6853.2002       7.74672508E+00
6854.6001       7.73163939E+00
6856.0000       7.71734810E+00
6857.3999       7.71576023E+00
6858.7998       7.72330284E+00
6860.2002       7.72687578E+00
6861.6001       7.72250891E+00
6863.0000       7.71774530E+00
6864.3999       7.70424747E+00
6865.7998       7.66534328E+00
6867.2002       7.60897160E+00
6868.6001       7.55895185E+00
6870.0000       7.53989697E+00
6871.3999       7.54823351E+00
6872.7998       7.56053972E+00
6874.2002       7.57681608E+00
6875.6001       7.59587145E+00
6877.0000       7.61889648E+00
6878.3999       7.63715744E+00
6879.7998       7.65660954E+00
6881.2002       7.67606211E+00
6882.6001       7.68400145E+00
6884.0000       7.67368031E+00
6885.3999       7.65859461E+00
6886.7998       7.64628839E+00
6888.2002       7.63993645E+00
6889.6001       7.64668512E+00
6891.0000       7.65780067E+00
6892.3999       7.66296148E+00
6893.7998       7.66574049E+00
6895.2002       7.66574049E+00
6896.6001       7.67328310E+00
6898.0000       7.68201685E+00
6899.3999       7.68161964E+00
6900.7998       7.67487097E+00
6902.2002       7.67209196E+00
6903.6001       7.67248917E+00
6905.0000       7.68201685E+00
6906.3999       7.68916225E+00
6907.7998       7.69035339E+00
6909.2002       7.69352913E+00
6910.6001       7.70623255E+00
6912.0000       7.71139336E+00
6913.3999       7.70464468E+00
6914.7998       7.69670486E+00
6916.2002       7.69352913E+00
6917.6001       7.69233847E+00
6919.0000       7.69551420E+00
6920.3999       7.70385075E+00
6921.7998       7.70742369E+00
6923.2002       7.70464468E+00
6924.6001       7.69948387E+00
6926.0000       7.70186567E+00
6927.3999       7.70662975E+00
6928.7998       7.70742369E+00
6930.2002       7.71020269E+00
6931.6001       7.71298122E+00
6933.0000       7.71298122E+00
6934.3999       7.71377516E+00
6935.7998       7.71536350E+00
6937.2002       7.71695137E+00
6938.6001       7.71853924E+00
6940.0000       7.72449398E+00
6941.3999       7.73521233E+00
6942.7998       7.73680019E+00
6944.2002       7.72965479E+00
6945.6001       7.72131824E+00
6947.0000       7.72171497E+00
6948.3999       7.72012711E+00
6949.7998       7.71695137E+00
6951.2002       7.71655416E+00
6952.6001       7.71972990E+00
6954.0000       7.72568464E+00
6955.3999       7.72687578E+00
6956.7998       7.72171497E+00
6958.2002       7.71695137E+00
6959.6001       7.71972990E+00
6961.0000       7.72608185E+00
6962.3999       7.73283052E+00
6963.7998       7.73997641E+00
6965.2002       7.74870968E+00
6966.6001       7.75228262E+00
6968.0000       7.74831295E+00
6969.3999       7.74315214E+00
6970.7998       7.74077034E+00
6972.2002       7.74116707E+00
6973.6001       7.73719740E+00
6975.0000       7.72647858E+00
6976.3999       7.71218729E+00
6977.7998       7.69789600E+00
6979.2002       7.68797159E+00
6980.6001       7.69829273E+00
6982.0000       7.71893597E+00
6983.3999       7.73005152E+00
6984.7998       7.73441839E+00
6986.2002       7.73322773E+00
6987.6001       7.72528791E+00
6989.0000       7.72250891E+00
6990.3999       7.72608185E+00
6991.7998       7.72647858E+00
6993.2002       7.72925758E+00
6994.6001       7.73481560E+00
6996.0000       7.73918247E+00
6997.3999       7.73918247E+00
6998.7998       7.73084545E+00
7000.2002       7.71893597E+00
7001.6001       7.71536350E+00
7003.0000       7.71695137E+00
7004.3999       7.70742369E+00
7005.7998       7.69194126E+00
7007.2002       7.69472027E+00
7008.6001       7.71218729E+00
7010.0000       7.72489071E+00
7011.3999       7.72766972E+00
7012.7998       7.72250891E+00
7014.2002       7.71893597E+00
7015.6001       7.70861435E+00
7017.0000       7.69511700E+00
7018.3999       7.69829273E+00
7019.7998       7.71536350E+00
7021.2002       7.71814203E+00
7022.6001       7.71258450E+00
7024.0000       7.71059942E+00
7025.3999       7.71020269E+00
7026.7998       7.70424747E+00
7028.2002       7.70940876E+00
7029.6001       7.71695137E+00
7031.0000       7.71576023E+00
7032.3999       7.70543861E+00
7033.7998       7.70186567E+00
7035.2002       7.69948387E+00
7036.6001       7.70583582E+00
7038.0000       7.71298122E+00
7039.3999       7.71179056E+00
7040.7998       7.72171497E+00
7042.2002       7.73243332E+00
7043.6001       7.73402119E+00
7045.0000       7.73044872E+00
7046.3999       7.72846365E+00
7047.7998       7.72171497E+00
7049.2002       7.71734810E+00
7050.6001       7.71417236E+00
7052.0000       7.71218729E+00
7053.3999       7.71020269E+00
7054.7998       7.71179056E+00
7056.2002       7.71020269E+00
7057.6001       7.70940876E+00
7059.0000       7.71298122E+00
7060.3999       7.71020269E+00
7061.7998       7.70623255E+00
7063.2002       7.70662975E+00
7064.6001       7.70623255E+00
7066.0000       7.70226288E+00
7067.3999       7.69273520E+00
7068.7998       7.68678045E+00
7070.2002       7.69194126E+00
7071.6001       7.69908714E+00
7073.0000       7.70265961E+00
7074.3999       7.70662975E+00
7075.7998       7.71417236E+00
7077.2002       7.71853924E+00
7078.6001       7.71933317E+00
7080.0000       7.72330284E+00
7081.3999       7.72489071E+00
7082.7998       7.71576023E+00
7084.2002       7.69749928E+00
7085.6001       7.69472027E+00
7087.0000       7.69908714E+00
7088.3999       7.69908714E+00
7089.7998       7.69948387E+00
7091.2002       7.69710207E+00
7092.6001       7.70226288E+00
7094.0000       7.70742369E+00
7095.3999       7.70940876E+00
7096.7998       7.70385075E+00
7098.2002       7.71258450E+00
7099.6001       7.72250891E+00
7101.0000       7.72489071E+00
7102.3999       7.71853924E+00
7103.7998       7.71059942E+00
7105.2002       7.71536350E+00
7106.6001       7.71059942E+00
7108.0000       7.70385075E+00
7109.3999       7.69988108E+00
7110.7998       7.69868994E+00
7112.2002       7.70146894E+00
7113.6001       7.71337843E+00
7115.0000       7.71576023E+00
7116.3999       7.71377516E+00
7117.7998       7.70385075E+00
7119.2002       7.70027781E+00
7120.6001       7.70782042E+00
7122.0000       7.71417236E+00
7123.3999       7.71139336E+00
7124.7998       7.71417236E+00
7126.2002       7.71337843E+00
7127.6001       7.71099663E+00
7129.0000       7.71179056E+00
7130.3999       7.70662975E+00
7131.7998       7.70067501E+00
7133.2002       7.71020269E+00
7134.6001       7.72528791E+00
7136.0000       7.72766972E+00
7137.3999       7.72290611E+00
7138.7998       7.71933317E+00
7140.2002       7.71576023E+00
7141.6001       7.70543861E+00
7143.0000       7.69154453E+00
7144.3999       7.68797159E+00
7145.7998       7.68479538E+00
7147.2002       7.67844391E+00
7148.6001       7.67963505E+00
7150.0000       7.68598652E+00
7151.3999       7.69829273E+00
7152.7998       7.71179056E+00
7154.2002       7.71536350E+00
7155.6001       7.71417236E+00
7157.0000       7.71814203E+00
7158.3999       7.71893597E+00
7159.7998       7.72052383E+00
7161.2002       7.71655416E+00
7162.6001       7.69630814E+00
7164.0000       7.67248917E+00
7165.3999       7.66534328E+00
7166.7998       7.68320751E+00
7168.2002       7.69789600E+00
7169.6001       7.69194126E+00
7171.0000       7.67923784E+00
7172.3999       7.68003178E+00
7173.7998       7.68519258E+00
7175.2002       7.66732836E+00
7176.6001       7.65422773E+00
7178.0000       7.66454935E+00
7179.3999       7.66732836E+00
7180.7998       7.65263987E+00
7182.2002       7.64192152E+00
7183.6001       7.63358498E+00
7185.0000       7.60619307E+00
7186.3999       7.60262012E+00
7187.7998       7.62723303E+00
7189.2002       7.65025806E+00
7190.6001       7.64668512E+00
7192.0000       7.63755465E+00
7193.3999       7.64033365E+00
7194.7998       7.65025806E+00
7196.2002       7.66296148E+00
7197.6001       7.67169523E+00
7199.0000       7.66454935E+00
7200.3999       7.65462494E+00
7201.7998       7.65224314E+00
7203.2002       7.65025806E+00
7204.6001       7.64509726E+00
7206.0000       7.63953972E+00
7207.3999       7.64827299E+00
7208.7998       7.66891623E+00
7210.2002       7.68836832E+00
7211.6001       7.70265961E+00
7213.0000       7.70385075E+00
7214.3999       7.70226288E+00
7215.7998       7.71258450E+00
7217.2002       7.72250891E+00
7218.6001       7.71496630E+00
7220.0000       7.70424747E+00
7221.3999       7.69432306E+00
7222.7998       7.69114733E+00
7224.2002       7.68916225E+00
7225.6001       7.69352913E+00
7227.0000       7.69392633E+00
7228.3999       7.68995619E+00
7229.7998       7.68360472E+00
7231.2002       7.67248917E+00
7232.6001       7.66097641E+00
7234.0000       7.65502167E+00
7235.3999       7.66693115E+00
7236.7998       7.68241358E+00
7238.2002       7.67685604E+00
7239.6001       7.66177082E+00
7241.0000       7.66296148E+00
7242.3999       7.66494656E+00
7243.7998       7.67010736E+00
7245.2002       7.67764997E+00
7246.6001       7.68638325E+00
7248.0000       7.68439865E+00
7249.3999       7.68003178E+00
7250.7998       7.65383101E+00
7252.2002       7.64668512E+00
7253.6001       7.66137362E+00
7255.0000       7.67248917E+00
7256.3999       7.68122292E+00
7257.7998       7.68558979E+00
7259.2002       7.68360472E+00
7260.6001       7.67090130E+00
7262.0000       7.66454935E+00
7263.3999       7.66693115E+00
7264.7998       7.66891623E+00
7266.2002       7.67248917E+00
7267.6001       7.67368031E+00
7269.0000       7.67685604E+00
7270.3999       7.67645884E+00
7271.7998       7.66931343E+00
7273.2002       7.65899181E+00
7274.6001       7.65065479E+00
7276.0000       7.65065479E+00
7277.3999       7.66057968E+00
7278.7998       7.66891623E+00
7280.2002       7.66971016E+00
7281.6001       7.66732836E+00
7283.0000       7.65819788E+00
7284.3999       7.65224314E+00
7285.7998       7.65105200E+00
7287.2002       7.63715744E+00
7288.6001       7.60897160E+00
7290.0000       7.59944439E+00
7291.3999       7.60976601E+00
7292.7998       7.62326336E+00
7294.2002       7.64470005E+00
7295.6001       7.66653442E+00
7297.0000       7.67487097E+00
7298.3999       7.66335869E+00
7299.7998       7.65541887E+00
7301.2002       7.65025806E+00
7302.6001       7.64946413E+00
7304.0000       7.65859461E+00
7305.3999       7.66494656E+00
7306.7998       7.65422773E+00
7308.2002       7.64430332E+00
7309.6001       7.64311218E+00
7311.0000       7.64787626E+00
7312.3999       7.65581608E+00
7313.7998       7.65780067E+00
7315.2002       7.64986134E+00
7316.6001       7.64390612E+00
7318.0000       7.64152431E+00
7319.3999       7.64073038E+00
7320.7998       7.64430332E+00
7322.2002       7.65065479E+00
7323.6001       7.65859461E+00
7325.0000       7.65065479E+00
7326.3999       7.63874531E+00
7327.7998       7.63676071E+00
7329.2002       7.63914251E+00
7330.6001       7.63834858E+00
7332.0000       7.63914251E+00
7333.3999       7.64271545E+00
7334.7998       7.65065479E+00
7336.2002       7.66177082E+00
7337.6001       7.66415262E+00
7339.0000       7.65780067E+00
7340.3999       7.65740395E+00
7341.7998       7.66375542E+00
7343.2002       7.66653442E+00
7344.6001       7.66216755E+00
7346.0000       7.65978575E+00
7347.3999       7.65819788E+00
7348.7998       7.64986134E+00
7350.2002       7.64470005E+00
7351.6001       7.64390612E+00
7353.0000       7.64628839E+00
7354.3999       7.65144920E+00
7355.7998       7.64986134E+00
7357.2002       7.64430332E+00
7358.6001       7.64470005E+00
7360.0000       7.64827299E+00
7361.3999       7.64787626E+00
7362.7998       7.64589119E+00
7364.2002       7.64231825E+00
7365.6001       7.64112759E+00
7367.0000       7.63993645E+00
7368.3999       7.64112759E+00
7369.7998       7.64787626E+00
7371.2002       7.65184593E+00
7372.6001       7.65700674E+00
7374.0000       7.65621281E+00
7375.3999       7.65303707E+00
7376.7998       7.65224314E+00
7378.2002       7.64747906E+00
7379.6001       7.64509726E+00
7381.0000       7.64112759E+00
7382.3999       7.63199663E+00
7383.7998       7.62445402E+00
7385.2002       7.61969042E+00
7386.6001       7.61095667E+00
7388.0000       7.60222292E+00
7389.3999       7.59865046E+00
7390.7998       7.60619307E+00
7392.2002       7.61810255E+00
7393.6001       7.62088108E+00
7395.0000       7.62088108E+00
7396.3999       7.62207222E+00
7397.7998       7.62842417E+00
7399.2002       7.63120270E+00
7400.6001       7.62326336E+00
7402.0000       7.61373568E+00
7403.3999       7.61373568E+00
7404.7998       7.61929321E+00
7406.2002       7.62008715E+00
7407.6001       7.61770535E+00
7409.0000       7.61413288E+00
7410.3999       7.60500193E+00
7411.7998       7.59706211E+00
7413.2002       7.60262012E+00
7414.6001       7.61214781E+00
7416.0000       7.61294174E+00
7417.3999       7.61373568E+00
7418.7998       7.61810255E+00
7420.2002       7.61810255E+00
7421.6001       7.61294174E+00
7423.0000       7.61095667E+00
7424.3999       7.61492634E+00
7425.7998       7.61929321E+00
7427.2002       7.62445402E+00
