#
# Spectrum of Hz227, spectral type F5v
# Source: Jacoby, Hunter, & Christian, 1984, ApJ, 56, 257
#         Scaled to flux=1.0 at 5500 Angstroms.
#
# Wave: wavelength in Angstroms
# Flux: scaled flux normalized to 1.0 at 5500A then shifted
#       in order of spectral type
Wave            Flux
3510.0000       8.65417099E+00
3511.3999       8.65631676E+00
3512.8000       8.68585205E+00
3514.2000       8.70301628E+00
3515.6001       8.71689987E+00
3517.0000       8.71652222E+00
3518.3999       8.70200729E+00
3519.8000       8.70503616E+00
3521.2000       8.70364761E+00
3522.6001       8.69456005E+00
3524.0000       8.68900681E+00
3525.3999       8.68055058E+00
3526.8000       8.68231773E+00
3528.2000       8.71715260E+00
3529.6001       8.73810387E+00
3531.0000       8.73520088E+00
3532.3999       8.71866703E+00
3533.8000       8.72497749E+00
3535.2000       8.73608494E+00
3536.6001       8.74491978E+00
3538.0000       8.74668694E+00
3539.3999       8.73911381E+00
3540.8000       8.72712326E+00
3542.2000       8.72018242E+00
3543.6001       8.74176407E+00
3545.0000       8.75627899E+00
3546.3999       8.76385212E+00
3547.8000       8.77104664E+00
3549.2000       8.78038597E+00
3550.6001       8.77811432E+00
3552.0000       8.76195908E+00
3553.3999       8.74113369E+00
3554.8000       8.71917152E+00
3556.2000       8.74996853E+00
3557.6001       8.76271629E+00
3559.0000       8.74428940E+00
3560.3999       8.72030830E+00
3561.8000       8.68761826E+00
3563.2000       8.65947247E+00
3564.6001       8.64773464E+00
3566.0000       8.65051079E+00
3567.3999       8.64054012E+00
3568.8000       8.63271523E+00
3570.2000       8.63183117E+00
3571.6001       8.63208389E+00
3573.0000       8.64104462E+00
3574.3999       8.66553116E+00
3575.8000       8.68559837E+00
3577.2000       8.68686104E+00
3578.6001       8.68004608E+00
3580.0000       8.66578293E+00
3581.3999       8.64155006E+00
3582.8000       8.60330677E+00
3584.2000       8.57642365E+00
3585.6001       8.57175255E+00
3587.0000       8.57743263E+00
3588.3999       8.59712219E+00
3589.8000       8.62829781E+00
3591.2000       8.65896797E+00
3592.6001       8.67979240E+00
3594.0000       8.70314217E+00
3595.3999       8.71955109E+00
3596.8000       8.72030830E+00
3598.2000       8.70617199E+00
3599.6001       8.69190979E+00
3601.0000       8.68648243E+00
3602.3999       8.66161823E+00
3603.8000       8.63486099E+00
3605.2000       8.63915253E+00
3606.6001       8.64672470E+00
3608.0000       8.63864708E+00
3609.3999       8.62779236E+00
3610.8000       8.62918091E+00
3612.2000       8.64924908E+00
3613.6001       8.65555954E+00
3615.0000       8.66994858E+00
3616.3999       8.66780281E+00
3617.8000       8.66527843E+00
3619.2000       8.65442371E+00
3620.6001       8.63170528E+00
3622.0000       8.63422966E+00
3623.3999       8.64268589E+00
3624.8000       8.68130779E+00
3626.2000       8.70251179E+00
3627.6001       8.70920086E+00
3629.0000       8.70491028E+00
3630.3999       8.68092918E+00
3631.8000       8.65720081E+00
3633.2000       8.63006401E+00
3634.6001       8.62286949E+00
3636.0000       8.65253067E+00
3637.3999       8.69052124E+00
3638.8000       8.71008492E+00
3640.2000       8.70478344E+00
3641.6001       8.70629883E+00
3643.0000       8.69228840E+00
3644.3999       8.66666603E+00
3645.8000       8.67790031E+00
3647.2000       8.68951225E+00
3648.6001       8.68471527E+00
3650.0000       8.68812370E+00
3651.3999       8.71803665E+00
3652.8000       8.74214363E+00
3654.2000       8.74794960E+00
3655.6001       8.76864815E+00
3657.0000       8.78631783E+00
3658.3999       8.78720188E+00
3659.8000       8.78909492E+00
3661.2000       8.78631783E+00
3662.6001       8.76587105E+00
3664.0000       8.74618149E+00
3665.3999       8.75867748E+00
3666.8000       8.74466705E+00
3668.2000       8.72131729E+00
3669.6001       8.72157001E+00
3671.0000       8.74125957E+00
3672.3999       8.76359940E+00
3673.8000       8.75766754E+00
3675.2000       8.74378395E+00
3676.6001       8.73860931E+00
3678.0000       8.72472572E+00
3679.3999       8.70932770E+00
3680.8000       8.70352173E+00
3682.2000       8.71374512E+00
3683.6001       8.73545361E+00
3685.0000       8.72056007E+00
3686.3999       8.68736649E+00
3687.8000       8.69582176E+00
3689.2000       8.72838593E+00
3690.6001       8.75463867E+00
3692.0000       8.78051186E+00
3693.3999       8.80941582E+00
3694.8000       8.82973671E+00
3696.2000       8.80272675E+00
3697.6001       8.77672577E+00
3699.0000       8.79591084E+00
3700.3999       8.81989098E+00
3701.8000       8.81736755E+00
3703.2000       8.77546406E+00
3704.6001       8.72510433E+00
3706.0000       8.70894814E+00
3707.3999       8.71955109E+00
3708.8000       8.73772621E+00
3710.2000       8.75009537E+00
3711.6001       8.75388145E+00
3713.0000       8.76890087E+00
3714.3999       8.80941582E+00
3715.8000       8.83592033E+00
3717.2000       8.85497856E+00
3718.6001       8.84652328E+00
3720.0000       8.73949242E+00
3721.3999       8.67941475E+00
3722.8000       8.69178391E+00
3724.2000       8.73974514E+00
3725.6001       8.78846359E+00
3727.0000       8.81686211E+00
3728.3999       8.83289146E+00
3729.8000       8.84866905E+00
3731.2000       8.80158997E+00
3732.6001       8.70907497E+00
3734.0000       8.64849186E+00
3735.3999       8.64281273E+00
3736.8000       8.67171478E+00
3738.2000       8.72926903E+00
3739.6001       8.79616356E+00
3741.0000       8.81661034E+00
3742.3999       8.80070686E+00
3743.8000       8.78669739E+00
3745.2000       8.76069641E+00
3746.6001       8.70099735E+00
3748.0000       8.64647293E+00
3749.3999       8.60961723E+00
3750.8000       8.65063763E+00
3752.2000       8.72257996E+00
3753.6001       8.78997803E+00
3755.0000       8.85005665E+00
3756.3999       8.86646461E+00
3757.8000       8.81421185E+00
3759.2000       8.78328896E+00
3760.6001       8.80297852E+00
3762.0000       8.83882332E+00
3763.3999       8.86684322E+00
3764.8000       8.86091137E+00
3766.2000       8.82216358E+00
3767.6001       8.75665855E+00
3769.0000       8.69796753E+00
3770.3999       8.68370628E+00
3771.8000       8.72952175E+00
3773.2000       8.79767799E+00
3774.6001       8.85990143E+00
3776.0000       8.92603874E+00
3777.3999       8.97728157E+00
3778.8000       9.01426220E+00
3780.2000       9.05061245E+00
3781.6001       9.07547665E+00
3783.0000       9.07105923E+00
3784.3999       9.02372837E+00
3785.8000       8.96554375E+00
3787.2000       8.91972733E+00
3788.6001       8.88312531E+00
3790.0000       8.87151337E+00
3791.3999       8.87668800E+00
3792.8000       8.83932877E+00
3794.2000       8.79982376E+00
3795.6001       8.76801682E+00
3797.0000       8.72409439E+00
3798.3999       8.72447300E+00
3799.8000       8.80966759E+00
3801.2000       8.89107704E+00
3802.6001       8.95645618E+00
3804.0000       8.99154377E+00
3805.3999       8.99570847E+00
3806.8000       9.00845623E+00
3808.2000       9.05780602E+00
3809.6001       9.08872890E+00
3811.0000       9.06802940E+00
3812.3999       9.02057266E+00
3813.8000       8.96200943E+00
3815.2000       8.94004822E+00
3816.6001       8.99633980E+00
3818.0000       9.02271843E+00
3819.3999       8.98901939E+00
3820.8000       8.96983528E+00
3822.2000       8.96996117E+00
3823.6001       8.93297958E+00
3825.0000       8.85939693E+00
3826.3999       8.82620239E+00
3827.8000       8.81358051E+00
3829.2000       8.77521133E+00
3830.6001       8.70907497E+00
3832.0000       8.65379333E+00
3833.3999       8.61794758E+00
3834.8000       8.61466599E+00
3836.2000       8.63990974E+00
3837.6001       8.68660927E+00
3839.0000       8.76057053E+00
3840.3999       8.85321236E+00
3841.8000       8.93714523E+00
3843.2000       9.00189304E+00
3844.6001       9.04051495E+00
3846.0000       9.05957413E+00
3847.3999       9.08153534E+00
3848.8000       9.08910751E+00
3850.2000       9.09365177E+00
3851.6001       9.11334038E+00
3853.0000       9.12570953E+00
3854.3999       9.12936974E+00
3855.8000       9.11561298E+00
3857.2000       9.07837963E+00
3858.6001       9.06336021E+00
3860.0000       9.12179756E+00
3861.3999       9.16584587E+00
3862.8000       9.17316628E+00
3864.2000       9.15940952E+00
3865.6001       9.14060402E+00
3867.0000       9.14476871E+00
3868.3999       9.12608910E+00
3869.8000       9.08544731E+00
3871.2000       9.05048561E+00
3872.6001       9.04632092E+00
3874.0000       9.10955429E+00
3875.3999       9.06765175E+00
3876.8000       9.01590347E+00
3878.2000       9.00618458E+00
3879.6001       9.01779652E+00
3881.0000       8.99659252E+00
3882.3999       8.92136765E+00
3883.8000       8.81496906E+00
3885.2000       8.72926903E+00
3886.6001       8.67310333E+00
3888.0000       8.65063763E+00
3889.3999       8.67752075E+00
3890.8000       8.76107597E+00
3892.2000       8.84172630E+00
3893.6001       8.89625168E+00
3895.0000       8.94130993E+00
3896.3999       8.96099949E+00
3897.8000       8.98561096E+00
3899.2000       9.00782585E+00
3900.6001       9.01729202E+00
3902.0000       9.02006817E+00
3903.3999       9.00631142E+00
3904.8000       8.96983528E+00
3906.2000       8.99230099E+00
3907.6001       9.05654430E+00
3909.0000       9.09769058E+00
3910.3999       9.12482643E+00
3911.8000       9.11927319E+00
3913.2000       9.10235977E+00
3914.6001       9.09074879E+00
3916.0000       9.06752491E+00
3917.3999       9.04291344E+00
3918.8000       9.02347565E+00
3920.2000       9.03508759E+00
3921.6001       9.04379654E+00
3923.0000       9.00000000E+00
3924.3999       8.94976616E+00
3925.8000       8.89019299E+00
3927.2000       8.79780388E+00
3928.6001       8.66755009E+00
3930.0000       8.54083061E+00
3931.3999       8.44743156E+00
3932.8000       8.40148926E+00
3934.2000       8.42345047E+00
3935.6001       8.52442265E+00
3937.0000       8.64369583E+00
3938.3999       8.75590038E+00
3939.8000       8.84488201E+00
3941.2000       8.90521240E+00
3942.6001       8.93638802E+00
3944.0000       8.97437859E+00
3945.3999       8.99823284E+00
3946.8000       9.00012589E+00
3948.2000       9.02057266E+00
3949.6001       9.04076767E+00
3951.0000       9.05465126E+00
3952.3999       9.05603981E+00
3953.8000       9.04455376E+00
3955.2000       9.00025272E+00
3956.6001       8.99873734E+00
3958.0000       9.00921440E+00
3959.3999       8.98308754E+00
3960.8000       8.90836811E+00
3962.2000       8.79376507E+00
3963.6001       8.70326900E+00
3965.0000       8.61113167E+00
3966.3999       8.50650024E+00
3967.8000       8.43127632E+00
3969.2000       8.43708229E+00
3970.6001       8.52669430E+00
3972.0000       8.64003563E+00
3973.3999       8.74390984E+00
3974.8000       8.83200836E+00
3976.2000       8.90672684E+00
3977.6001       8.97867012E+00
3979.0000       9.02814579E+00
3980.3999       9.04240799E+00
3981.8000       9.03470898E+00
3983.2000       9.01703930E+00
3984.6001       9.02663136E+00
3986.0000       9.06222343E+00
3987.3999       9.08203983E+00
3988.8000       9.10968018E+00
3990.2000       9.15726376E+00
3991.6001       9.18313789E+00
3993.0000       9.16988564E+00
3994.3999       9.15562248E+00
3995.8000       9.14691353E+00
3997.2000       9.13580704E+00
3998.6001       9.15019608E+00
4000.0000       9.17619610E+00
4001.3999       9.19841003E+00
4002.8000       9.18780708E+00
4004.2000       9.13858414E+00
4005.6001       9.13038063E+00
4007.0000       9.15625381E+00
4008.3999       9.19790459E+00
4009.8000       9.22706032E+00
4011.2000       9.23476028E+00
4012.6001       9.22844887E+00
4014.0000       9.21342945E+00
4015.3999       9.20282745E+00
4016.8000       9.21570110E+00
4018.2000       9.22895432E+00
4019.6001       9.22781754E+00
4021.0000       9.22983742E+00
4022.3999       9.22642899E+00
4023.8000       9.21847725E+00
4025.2000       9.24157524E+00
4026.6001       9.25684738E+00
4028.0000       9.23501205E+00
4029.3999       9.17733192E+00
4030.8000       9.13441849E+00
4032.2000       9.14716721E+00
4033.6001       9.18704987E+00
4035.0000       9.22529411E+00
4036.3999       9.25343895E+00
4037.8000       9.26126480E+00
4039.2000       9.25003147E+00
4040.6001       9.23387623E+00
4042.0000       9.22605133E+00
4043.3999       9.19146729E+00
4044.8000       9.14956474E+00
4046.2000       9.15978813E+00
4047.6001       9.20989513E+00
4049.0000       9.25293446E+00
4050.3999       9.26000214E+00
4051.8000       9.24611855E+00
4053.2000       9.20686626E+00
4054.6001       9.17177868E+00
4056.0000       9.16092396E+00
4057.3999       9.17720604E+00
4058.8000       9.20270157E+00
4060.2000       9.21734238E+00
4061.6001       9.19639015E+00
4063.0000       9.14956474E+00
4064.3999       9.15701103E+00
4065.8000       9.17392349E+00
4067.2000       9.19437027E+00
4068.6001       9.22415733E+00
4070.0000       9.19411850E+00
4071.3999       9.15865231E+00
4072.8000       9.14300156E+00
4074.2000       9.14363289E+00
4075.6001       9.10273933E+00
4077.0000       9.08847618E+00
4078.3999       9.11005974E+00
4079.8000       9.15309906E+00
4081.2000       9.17985630E+00
4082.6001       9.14880753E+00
4084.0000       9.14615631E+00
4085.3999       9.15751648E+00
4086.8000       9.17758369E+00
4088.2000       9.19474983E+00
4089.6001       9.17543888E+00
4091.0000       9.14931202E+00
4092.3999       9.12470055E+00
4093.8000       9.08885574E+00
4095.2000       9.02928162E+00
4096.6001       8.96352386E+00
4098.0000       8.89057159E+00
4099.3999       8.79288101E+00
4100.7998       8.72737598E+00
4102.2002       8.74479389E+00
4103.6001       8.81547356E+00
4105.0000       8.90571785E+00
4106.3999       8.96718407E+00
4107.7998       8.99381542E+00
4109.2002       9.02966118E+00
4110.6001       9.08077812E+00
4112.0000       9.14300156E+00
4113.3999       9.19500160E+00
4114.7998       9.20926476E+00
4116.2002       9.20446777E+00
4117.6001       9.18704987E+00
4119.0000       9.17278862E+00
4120.3999       9.18402100E+00
4121.7998       9.17972946E+00
4123.2002       9.17392349E+00
4124.6001       9.16483688E+00
4126.0000       9.14767075E+00
4127.3999       9.15082741E+00
4128.7998       9.16887569E+00
4130.2002       9.16912842E+00
4131.6001       9.15246773E+00
4133.0000       9.14464188E+00
4134.3999       9.18869114E+00
4135.7998       9.23450661E+00
4137.2002       9.26341057E+00
4138.6001       9.27350807E+00
4140.0000       9.26845932E+00
4141.3999       9.24271107E+00
4142.7998       9.21204090E+00
4144.2002       9.21292496E+00
4145.6001       9.22870159E+00
4147.0000       9.23223495E+00
4148.3999       9.22958469E+00
4149.7998       9.23362350E+00
4151.2002       9.22996330E+00
4152.6001       9.20913792E+00
4154.0000       9.18048668E+00
4155.3999       9.15650654E+00
4156.7998       9.17632198E+00
4158.2002       9.19992447E+00
4159.6001       9.21267223E+00
4161.0000       9.22605133E+00
4162.3999       9.24018669E+00
4163.7998       9.26341057E+00
4165.2002       9.27729416E+00
4166.6001       9.25848770E+00
4168.0000       9.23740959E+00
4169.3999       9.20686626E+00
4170.7998       9.16849709E+00
4172.2002       9.14805031E+00
4173.6001       9.14047718E+00
4175.0000       9.14413738E+00
4176.3999       9.15612793E+00
4177.7998       9.17935181E+00
4179.2002       9.21305084E+00
4180.6001       9.22289562E+00
4182.0000       9.21292496E+00
4183.3999       9.21140957E+00
4184.7998       9.20434189E+00
4186.2002       9.19512844E+00
4187.6001       9.19071007E+00
4189.0000       9.19550705E+00
4190.3999       9.22504139E+00
4191.7998       9.24826431E+00
4193.2002       9.24473095E+00
4194.6001       9.20800209E+00
4196.0000       9.16761303E+00
4197.3999       9.13681698E+00
4198.7998       9.13214684E+00
4200.2002       9.14779758E+00
4201.6001       9.16130257E+00
4203.0000       9.20711899E+00
4204.3999       9.23576927E+00
4205.7998       9.24460411E+00
4207.2002       9.26189613E+00
4208.6001       9.27098274E+00
4210.0000       9.28108025E+00
4211.3999       9.28612900E+00
4212.7998       9.29622650E+00
4214.2002       9.27224541E+00
4215.6001       9.23400211E+00
4217.0000       9.20749664E+00
4218.3999       9.20093346E+00
4219.7998       9.20573044E+00
4221.2002       9.21039963E+00
4222.6001       9.19310856E+00
4224.0000       9.15928268E+00
4225.3999       9.09175873E+00
4226.7998       9.08405876E+00
4228.2002       9.13694286E+00
4229.6001       9.21039963E+00
4231.0000       9.23185730E+00
4232.3999       9.20913792E+00
4233.7998       9.18906975E+00
4235.2002       9.17657471E+00
4236.6001       9.17632198E+00
4238.0000       9.17152596E+00
4239.3999       9.17897224E+00
4240.7998       9.20194435E+00
4242.2002       9.21418667E+00
4243.6001       9.21077919E+00
4245.0000       9.20181751E+00
4246.3999       9.19689560E+00
4247.7998       9.19235134E+00
4249.2002       9.17884636E+00
4250.6001       9.17733192E+00
4252.0000       9.20812798E+00
4253.3999       9.22567177E+00
4254.7998       9.22340012E+00
4256.2002       9.21607971E+00
4257.6001       9.19752598E+00
4259.0000       9.17733192E+00
4260.3999       9.16609859E+00
4261.7998       9.17468071E+00
4263.2002       9.19815731E+00
4264.6001       9.21910858E+00
4266.0000       9.22920609E+00
4267.3999       9.21708965E+00
4268.7998       9.20509911E+00
4270.2002       9.17442894E+00
4271.6001       9.15284634E+00
4273.0000       9.14047718E+00
4274.3999       9.15966225E+00
4275.7998       9.19071007E+00
4277.2002       9.21999264E+00
4278.6001       9.23021603E+00
4280.0000       9.22125435E+00
4281.3999       9.20976925E+00
4282.7998       9.20207024E+00
4284.2002       9.18806076E+00
4285.6001       9.16597271E+00
4287.0000       9.14375877E+00
4288.3999       9.09365177E+00
4289.7998       9.07471943E+00
4291.2002       9.10501099E+00
4292.6001       9.15183640E+00
4294.0000       9.16799164E+00
4295.3999       9.15511799E+00
4296.7998       9.12141895E+00
4298.2002       9.07307816E+00
4299.6001       9.02877712E+00
4301.0000       9.01703930E+00
4302.3999       9.02499008E+00
4303.7998       9.02877712E+00
4305.2002       9.03218460E+00
4306.6001       9.02814579E+00
4308.0000       9.02966118E+00
4309.3999       9.06033134E+00
4310.7998       9.10803986E+00
4312.2002       9.12861252E+00
4313.6001       9.12621498E+00
4315.0000       9.14211845E+00
4316.3999       9.17114735E+00
4317.7998       9.18515778E+00
4319.2002       9.16950607E+00
4320.6001       9.15196228E+00
4322.0000       9.13189507E+00
4323.3999       9.09352493E+00
4324.7998       9.05679703E+00
4326.2002       9.06462193E+00
4327.6001       9.10122490E+00
4329.0000       9.13580704E+00
4330.3999       9.13542843E+00
4331.7998       9.10715675E+00
4333.2002       9.06828213E+00
4334.6001       9.01590347E+00
4336.0000       8.94459152E+00
4337.3999       8.84450340E+00
4338.7998       8.74996853E+00
4340.2002       8.72018242E+00
4341.6001       8.75400734E+00
4343.0000       8.84652328E+00
4344.3999       8.93335915E+00
4345.7998       9.00492287E+00
4347.2002       9.06007767E+00
4348.6001       9.08355427E+00
4350.0000       9.06512642E+00
4351.3999       9.05831146E+00
4352.7998       9.07812691E+00
4354.2002       9.12343788E+00
4355.6001       9.17316628E+00
4357.0000       9.19007969E+00
4358.3999       9.19916725E+00
4359.7998       9.20459366E+00
4361.2002       9.22100258E+00
4362.6001       9.23816681E+00
4364.0000       9.24069214E+00
4365.3999       9.22958469E+00
4366.7998       9.20939064E+00
4368.2002       9.20017624E+00
4369.6001       9.21128368E+00
4371.0000       9.21910858E+00
4372.3999       9.21254539E+00
4373.7998       9.18704987E+00
4375.2002       9.18389511E+00
4376.6001       9.21090508E+00
4378.0000       9.22857475E+00
4379.3999       9.23677921E+00
4380.7998       9.21456528E+00
4382.2002       9.16710854E+00
4383.6001       9.14338017E+00
4385.0000       9.14779758E+00
4386.3999       9.17543888E+00
4387.7998       9.20573044E+00
4389.2002       9.21292496E+00
4390.6001       9.22415733E+00
4392.0000       9.24182796E+00
4393.3999       9.24397278E+00
4394.7998       9.24851704E+00
4396.2002       9.26845932E+00
4397.6001       9.25735188E+00
4399.0000       9.21973991E+00
4400.3999       9.18275928E+00
4401.7998       9.19222546E+00
4403.2002       9.20345879E+00
4404.6001       9.21734238E+00
4406.0000       9.23564339E+00
4407.3999       9.24624538E+00
4408.7998       9.25268173E+00
4410.2002       9.26593494E+00
4411.6001       9.27603149E+00
4413.0000       9.24902153E+00
4414.3999       9.21570110E+00
4415.7998       9.19790459E+00
4417.2002       9.20964241E+00
4418.6001       9.22908020E+00
4420.0000       9.24069214E+00
4421.3999       9.24296379E+00
4422.7998       9.24233246E+00
4424.2002       9.23210907E+00
4425.6001       9.24359512E+00
4427.0000       9.24801254E+00
4428.3999       9.24208069E+00
4429.7998       9.23147774E+00
4431.2002       9.21671104E+00
4432.6001       9.20068169E+00
4434.0000       9.19512844E+00
4435.3999       9.20673943E+00
4436.7998       9.23324490E+00
4438.2002       9.27476978E+00
4439.6001       9.27981853E+00
4441.0000       9.24510956E+00
4442.3999       9.21923542E+00
4443.7998       9.22579861E+00
4445.2002       9.23942947E+00
4446.6001       9.23942947E+00
4448.0000       9.24245834E+00
4449.3999       9.24712849E+00
4450.7998       9.24548817E+00
4452.2002       9.22302151E+00
4453.6001       9.19437027E+00
4455.0000       9.17960358E+00
4456.3999       9.17013741E+00
4457.7998       9.16395378E+00
4459.2002       9.16723442E+00
4460.6001       9.18604088E+00
4462.0000       9.20648766E+00
4463.3999       9.21658516E+00
4464.7998       9.21431255E+00
4466.2002       9.21241951E+00
4467.6001       9.20623493E+00
4469.0000       9.20484734E+00
4470.3999       9.22453690E+00
4471.7998       9.26972103E+00
4473.2002       9.27729416E+00
4474.6001       9.26214790E+00
4476.0000       9.24801254E+00
4477.3999       9.23501205E+00
4478.7998       9.20169163E+00
4480.2002       9.16306973E+00
4481.6001       9.16041946E+00
4483.0000       9.18566227E+00
4484.3999       9.21595383E+00
4485.7998       9.22226429E+00
4487.2002       9.21330261E+00
4488.6001       9.20244884E+00
4490.0000       9.21065235E+00
4491.3999       9.24700260E+00
4492.7998       9.24574089E+00
4494.2002       9.23236084E+00
4495.6001       9.22592449E+00
4497.0000       9.23349762E+00
4498.3999       9.23501205E+00
4499.7998       9.23425484E+00
4501.2002       9.24561405E+00
4502.6001       9.26139069E+00
4504.0000       9.28739166E+00
4505.3999       9.28991508E+00
4506.7998       9.25975037E+00
4508.2002       9.23993492E+00
4509.6001       9.24245834E+00
4511.0000       9.25886726E+00
4512.3999       9.27224541E+00
4513.7998       9.26593494E+00
4515.2002       9.24750710E+00
4516.6001       9.24674988E+00
4518.0000       9.26593494E+00
4519.3999       9.26341057E+00
4520.7998       9.23274040E+00
4522.2002       9.21115685E+00
4523.6001       9.20964241E+00
4525.0000       9.20737076E+00
4526.3999       9.18806076E+00
4527.7998       9.16357422E+00
4529.2002       9.14981651E+00
4530.6001       9.15234184E+00
4532.0000       9.14817619E+00
4533.3999       9.14136124E+00
4534.7998       9.17140007E+00
4536.2002       9.21279812E+00
4537.6001       9.23526382E+00
4539.0000       9.22554588E+00
4540.3999       9.22642899E+00
4541.7998       9.21683693E+00
4543.2002       9.20863342E+00
4544.6001       9.22125435E+00
4546.0000       9.22251701E+00
4547.3999       9.18982697E+00
4548.7998       9.16988564E+00
4550.2002       9.16003990E+00
4551.6001       9.17531204E+00
4553.0000       9.18376923E+00
4554.3999       9.17884636E+00
4555.7998       9.19979858E+00
4557.2002       9.22971153E+00
4558.6001       9.23753643E+00
4560.0000       9.23387623E+00
4561.3999       9.21216774E+00
4562.7998       9.20295334E+00
4564.2002       9.21153641E+00
4565.6001       9.22895432E+00
4567.0000       9.23374939E+00
4568.3999       9.22996330E+00
4569.7998       9.22870159E+00
4571.2002       9.22642899E+00
4572.6001       9.22037125E+00
4574.0000       9.23135185E+00
4575.3999       9.25356579E+00
4576.7998       9.25217724E+00
4578.2002       9.23412895E+00
4579.6001       9.21683693E+00
4581.0000       9.19525433E+00
4582.3999       9.17884636E+00
4583.7998       9.17960358E+00
4585.2002       9.18957520E+00
4586.6001       9.20232201E+00
4588.0000       9.21405983E+00
4589.3999       9.21809959E+00
4590.7998       9.21115685E+00
4592.2002       9.19676876E+00
4593.6001       9.18768120E+00
4595.0000       9.20812798E+00
4596.3999       9.23640060E+00
4597.7998       9.22592449E+00
4599.2002       9.21481800E+00
4600.6001       9.21002197E+00
4602.0000       9.20863342E+00
4603.3999       9.20446777E+00
4604.7998       9.19841003E+00
4606.2002       9.21772003E+00
4607.6001       9.23665237E+00
4609.0000       9.26341057E+00
4610.3999       9.26341057E+00
4611.7998       9.25785637E+00
4613.2002       9.25924492E+00
4614.6001       9.26151657E+00
4616.0000       9.24258518E+00
4617.3999       9.22807026E+00
4618.7998       9.22983742E+00
4620.2002       9.23778915E+00
4621.6001       9.24119663E+00
4623.0000       9.24775982E+00
4624.3999       9.23160362E+00
4625.7998       9.22024536E+00
4627.2002       9.22605133E+00
4628.6001       9.21910858E+00
4630.0000       9.19790459E+00
4631.3999       9.18137074E+00
4632.7998       9.17594337E+00
4634.2002       9.18932247E+00
4635.6001       9.20497322E+00
4637.0000       9.21507072E+00
4638.3999       9.21481800E+00
4639.7998       9.21292496E+00
4641.2002       9.21633244E+00
4642.6001       9.20320606E+00
4644.0000       9.17758369E+00
4645.3999       9.16938019E+00
4646.7998       9.16496277E+00
4648.2002       9.17493439E+00
4649.6001       9.20244884E+00
4651.0000       9.20560455E+00
4652.3999       9.19967175E+00
4653.7998       9.19172096E+00
4655.2002       9.19714737E+00
4656.6001       9.21645832E+00
4658.0000       9.22693443E+00
4659.3999       9.24624538E+00
4660.7998       9.25268173E+00
4662.2002       9.24081802E+00
4663.6001       9.21607971E+00
4665.0000       9.16975880E+00
4666.3999       9.14855480E+00
4667.7998       9.15486526E+00
4669.2002       9.17846775E+00
4670.6001       9.19146729E+00
4672.0000       9.21368217E+00
4673.3999       9.20270157E+00
4674.7998       9.20068169E+00
4676.2002       9.22390556E+00
4677.6001       9.23652649E+00
4679.0000       9.21481800E+00
4680.3999       9.21519661E+00
4681.7998       9.22466278E+00
4683.2002       9.23804092E+00
4684.6001       9.22554588E+00
4686.0000       9.22554588E+00
4687.3999       9.21948814E+00
4688.7998       9.20156479E+00
4690.2002       9.21153641E+00
4691.6001       9.23526382E+00
4693.0000       9.24498272E+00
4694.3999       9.26139069E+00
4695.7998       9.24069214E+00
4697.2002       9.20017624E+00
4698.6001       9.16319561E+00
4700.0000       9.14123440E+00
4701.3999       9.12873936E+00
4702.7998       9.14110851E+00
4704.2002       9.18086624E+00
4705.6001       9.18010902E+00
4707.0000       9.13997269E+00
4708.3999       9.12621498E+00
4709.7998       9.15612793E+00
4711.2002       9.18616676E+00
4712.6001       9.18818665E+00
4714.0000       9.18414783E+00
4715.3999       9.19500160E+00
4716.7998       9.22453690E+00
4718.2002       9.24914837E+00
4719.6001       9.24801254E+00
4721.0000       9.23463345E+00
4722.3999       9.22554588E+00
4723.7998       9.23412895E+00
4725.2002       9.24258518E+00
4726.6001       9.21305084E+00
4728.0000       9.17556477E+00
4729.3999       9.18174934E+00
4730.7998       9.18957520E+00
4732.2002       9.19828415E+00
4733.6001       9.19197273E+00
4735.0000       9.17531204E+00
4736.3999       9.14943886E+00
4737.7998       9.18174934E+00
4739.2002       9.22415733E+00
4740.6001       9.24510956E+00
4742.0000       9.24397278E+00
4743.3999       9.23463345E+00
4744.7998       9.21191502E+00
4746.2002       9.20585632E+00
4747.6001       9.19664288E+00
4749.0000       9.20560455E+00
4750.3999       9.21734238E+00
4751.7998       9.22239113E+00
4753.2002       9.20585632E+00
4754.6001       9.17417717E+00
4756.0000       9.16193390E+00
4757.3999       9.16635132E+00
4758.7998       9.18439960E+00
4760.2002       9.16180801E+00
4761.6001       9.12482643E+00
4763.0000       9.11081696E+00
4764.3999       9.11447716E+00
4765.7998       9.12659359E+00
4767.2002       9.13757420E+00
4768.6001       9.14009857E+00
4770.0000       9.15852547E+00
4771.3999       9.17581749E+00
4772.7998       9.19765282E+00
4774.2002       9.22655582E+00
4775.6001       9.22100258E+00
4777.0000       9.18439960E+00
4778.3999       9.15764236E+00
4779.7998       9.14779758E+00
4781.2002       9.14072990E+00
4782.6001       9.13921547E+00
4784.0000       9.13997269E+00
4785.3999       9.13214684E+00
4786.7998       9.12470055E+00
4788.2002       9.12924385E+00
4789.6001       9.14085579E+00
4791.0000       9.15234184E+00
4792.3999       9.17291451E+00
4793.7998       9.20383644E+00
4795.2002       9.19853592E+00
4796.6001       9.18326378E+00
4798.0000       9.17783737E+00
4799.3999       9.16508865E+00
4800.7998       9.16382694E+00
4802.2002       9.17998219E+00
4803.6001       9.15865231E+00
4805.0000       9.16357422E+00
4806.3999       9.17644882E+00
4807.7998       9.17581749E+00
4809.2002       9.16117668E+00
4810.6001       9.17177868E+00
4812.0000       9.17985630E+00
4813.3999       9.17733192E+00
4814.7998       9.18023491E+00
4816.2002       9.17581749E+00
4817.6001       9.16256523E+00
4819.0000       9.16445732E+00
4820.3999       9.15890503E+00
4821.7998       9.14451599E+00
4823.2002       9.12886524E+00
4824.6001       9.13542843E+00
4826.0000       9.16218567E+00
4827.3999       9.18528366E+00
4828.7998       9.16963291E+00
4830.2002       9.14603043E+00
4831.6001       9.14489460E+00
4833.0000       9.16092396E+00
4834.3999       9.18806076E+00
4835.7998       9.17707920E+00
4837.2002       9.16205978E+00
4838.6001       9.16370010E+00
4840.0000       9.15903091E+00
4841.3999       9.13782692E+00
4842.7998       9.11195278E+00
4844.2002       9.10198212E+00
4845.6001       9.10475826E+00
4847.0000       9.10766125E+00
4848.3999       9.09503937E+00
4849.7998       9.06550598E+00
4851.2002       9.03534031E+00
4852.6001       9.00820351E+00
4854.0000       8.97160149E+00
4855.3999       8.91922283E+00
4856.7998       8.86267853E+00
4858.2002       8.80108547E+00
4859.6001       8.72826004E+00
4861.0000       8.69506454E+00
4862.3999       8.71652222E+00
4863.7998       8.77546406E+00
4865.2002       8.83895016E+00
4866.6001       8.90142632E+00
4868.0000       8.94762039E+00
4869.3999       8.97791290E+00
4870.7998       8.99255371E+00
4872.2002       8.98901939E+00
4873.6001       8.98157310E+00
4875.0000       8.98207760E+00
4876.3999       8.99343681E+00
4877.7998       9.03420448E+00
4879.2002       9.09100151E+00
4880.6001       9.09895229E+00
4882.0000       9.07282639E+00
4883.3999       9.05477715E+00
4884.7998       9.05679703E+00
4886.2002       9.06336021E+00
4887.6001       9.06929207E+00
4889.0000       9.06967068E+00
4890.3999       9.07547665E+00
4891.7998       9.09920502E+00
4893.2002       9.12772942E+00
4894.6001       9.14716721E+00
4896.0000       9.15751648E+00
4897.3999       9.15309906E+00
4898.7998       9.14123440E+00
4900.2002       9.11876869E+00
4901.6001       9.11624336E+00
4903.0000       9.12343788E+00
4904.3999       9.12381744E+00
4905.7998       9.11662292E+00
4907.2002       9.10740852E+00
4908.6001       9.09428215E+00
4910.0000       9.13277817E+00
4911.3999       9.14552593E+00
4912.7998       9.16079712E+00
4914.2002       9.16205978E+00
4915.6001       9.15511799E+00
4917.0000       9.13176823E+00
4918.3999       9.07926273E+00
4919.7998       9.04720497E+00
4921.2002       9.05553436E+00
4922.6001       9.07004929E+00
4924.0000       9.07989407E+00
4925.3999       9.09907913E+00
4926.7998       9.11952591E+00
4928.2002       9.13151550E+00
4929.6001       9.14274883E+00
4931.0000       9.13467121E+00
4932.3999       9.10879707E+00
4933.7998       9.10084534E+00
4935.2002       9.10046768E+00
4936.6001       9.09011745E+00
4938.0000       9.09175873E+00
4939.3999       9.10904980E+00
4940.7998       9.13164234E+00
4942.2002       9.16054535E+00
4943.6001       9.17354584E+00
4945.0000       9.14855480E+00
4946.3999       9.13719559E+00
4947.7998       9.14666176E+00
4949.2002       9.16925430E+00
4950.6001       9.18982697E+00
4952.0000       9.19752598E+00
4953.3999       9.18137074E+00
4954.7998       9.13101101E+00
4956.2002       9.09327316E+00
4957.6001       9.08405876E+00
4959.0000       9.09844780E+00
4960.3999       9.13504982E+00
4961.7998       9.16647720E+00
4963.2002       9.16685581E+00
4964.6001       9.15802097E+00
4966.0000       9.13807869E+00
4967.3999       9.13618565E+00
4968.7998       9.13568115E+00
4970.2002       9.12987518E+00
4971.6001       9.13845825E+00
4973.0000       9.13896275E+00
4974.3999       9.14224434E+00
4975.7998       9.13176823E+00
4977.2002       9.11069107E+00
4978.6001       9.09175873E+00
4980.0000       9.06462193E+00
4981.3999       9.02650547E+00
4982.7998       9.01009750E+00
4984.2002       9.04556370E+00
4985.6001       9.08645725E+00
4987.0000       9.09806919E+00
4988.3999       9.10740852E+00
4989.7998       9.11801147E+00
4991.2002       9.11750603E+00
4992.6001       9.10601997E+00
4994.0000       9.10816574E+00
4995.3999       9.12242889E+00
4996.7998       9.12091446E+00
4998.2002       9.10753536E+00
4999.6001       9.09049606E+00
5001.0000       9.08292294E+00
5002.3999       9.08292294E+00
5003.7998       9.09604931E+00
5005.2002       9.06399155E+00
5006.6001       9.08582592E+00
5008.0000       9.09541893E+00
5009.3999       9.07888412E+00
5010.7998       9.02726269E+00
5012.2002       9.00795174E+00
5013.6001       9.00441742E+00
5015.0000       9.02297115E+00
5016.3999       9.01072884E+00
5017.7998       9.02625275E+00
5019.2002       9.05755424E+00
5020.6001       9.06777763E+00
5022.0000       9.06689453E+00
5023.3999       9.07080650E+00
5024.7998       9.07219505E+00
5026.2002       9.07131195E+00
5027.6001       9.08115578E+00
5029.0000       9.10299110E+00
5030.3999       9.12204933E+00
5031.7998       9.12204933E+00
5033.2002       9.11233139E+00
5034.6001       9.09668064E+00
5036.0000       9.07686424E+00
5037.3999       9.06689453E+00
5038.7998       9.04531097E+00
5040.2002       9.03117561E+00
5041.6001       9.05351448E+00
5043.0000       9.10337067E+00
5044.3999       9.13555527E+00
5045.7998       9.14211845E+00
5047.2002       9.11927319E+00
5048.6001       9.09024429E+00
5050.0000       9.07547665E+00
5051.3999       9.06537914E+00
5052.7998       9.09403038E+00
5054.2002       9.12154484E+00
5055.6001       9.13050652E+00
5057.0000       9.12722397E+00
5058.3999       9.12331200E+00
5059.7998       9.14085579E+00
5061.2002       9.13479805E+00
5062.6001       9.12268066E+00
5064.0000       9.08885574E+00
5065.3999       9.06323433E+00
5066.7998       9.07042789E+00
5068.2002       9.09125328E+00
5069.6001       9.07307816E+00
5071.0000       9.06399155E+00
5072.3999       9.06929207E+00
5073.7998       9.06840897E+00
5075.2002       9.06866074E+00
5076.6001       9.07901001E+00
5078.0000       9.06399155E+00
5079.3999       9.03357315E+00
5080.7998       9.04228210E+00
5082.2002       9.06903934E+00
5083.6001       9.09213638E+00
5085.0000       9.09756470E+00
5086.3999       9.08166122E+00
5087.7998       9.07497215E+00
5089.2002       9.10387421E+00
5090.6001       9.11611748E+00
5092.0000       9.11763191E+00
5093.3999       9.12003040E+00
5094.7998       9.10930252E+00
5096.2002       9.07547665E+00
5097.6001       9.05351448E+00
5099.0000       9.05035973E+00
5100.3999       9.06575775E+00
5101.7998       9.08923340E+00
5103.2002       9.10311699E+00
5104.6001       9.09895229E+00
5106.0000       9.07825279E+00
5107.3999       9.05856323E+00
5108.7998       9.05477715E+00
5110.2002       9.06159306E+00
5111.6001       9.09213638E+00
5113.0000       9.11132145E+00
5114.3999       9.11220551E+00
5115.7998       9.10942841E+00
5117.2002       9.11536026E+00
5118.6001       9.11283588E+00
5120.0000       9.10109806E+00
5121.3999       9.08847618E+00
5122.7998       9.08405876E+00
5124.2002       9.09037018E+00
5125.6001       9.09112740E+00
5127.0000       9.08506870E+00
5128.3999       9.07547665E+00
5129.7998       9.05957413E+00
5131.2002       9.04556370E+00
5132.6001       9.03950500E+00
5134.0000       9.05048561E+00
5135.3999       9.06235027E+00
5136.7998       9.05490303E+00
5138.2002       9.05212688E+00
5139.6001       9.05591297E+00
5141.0000       9.06373882E+00
5142.3999       9.06285477E+00
5143.7998       9.05212688E+00
5145.2002       9.04947662E+00
5146.6001       9.05301094E+00
5148.0000       9.05301094E+00
5149.3999       9.03180599E+00
5150.7998       9.05263138E+00
5152.2002       9.07434082E+00
5153.6001       9.08847618E+00
5155.0000       9.08595276E+00
5156.3999       9.08759308E+00
5157.7998       9.08203983E+00
5159.2002       9.05944729E+00
5160.6001       9.04127216E+00
5162.0000       9.03988457E+00
5163.3999       9.03597069E+00
5164.7998       8.99356270E+00
5166.2002       8.95342636E+00
5167.6001       8.95001888E+00
5169.0000       8.96150398E+00
5170.3999       8.95658207E+00
5171.7998       8.95872784E+00
5173.2002       8.99798012E+00
5174.6001       9.03672886E+00
5176.0000       9.04682541E+00
5177.3999       9.04833984E+00
5178.7998       9.05149555E+00
5180.2002       9.02360249E+00
5181.6001       8.96175671E+00
5183.0000       8.93651390E+00
5184.3999       8.96112633E+00
5185.7998       9.00896072E+00
5187.2002       9.02233982E+00
5188.6001       9.02095222E+00
5190.0000       9.00378609E+00
5191.3999       8.98851395E+00
5192.7998       8.99280548E+00
5194.2002       9.02360249E+00
5195.6001       9.03218460E+00
5197.0000       9.04606819E+00
5198.3999       9.06197166E+00
5199.7998       9.06840897E+00
5201.2002       9.06424332E+00
5202.6001       9.04960251E+00
5204.0000       9.03773880E+00
5205.3999       9.02865028E+00
5206.7998       9.03205872E+00
5208.2002       9.04518509E+00
5209.6001       9.05086517E+00
5211.0000       9.05944729E+00
5212.3999       9.06979656E+00
5213.7998       9.04556370E+00
5215.2002       9.02322388E+00
5216.6001       9.03420448E+00
5218.0000       9.05717564E+00
5219.3999       9.07875824E+00
5220.7998       9.07635975E+00
5222.2002       9.06033134E+00
5223.6001       9.03584480E+00
5225.0000       8.99280548E+00
5226.3999       8.96364975E+00
5227.7998       8.98245621E+00
5229.2002       9.02663136E+00
5230.6001       9.03193283E+00
5232.0000       9.03395176E+00
5233.3999       9.03382587E+00
5234.7998       9.03597069E+00
5236.2002       9.04770947E+00
5237.6001       9.06310749E+00
5239.0000       9.06790352E+00
5240.3999       9.07105923E+00
5241.7998       9.06134033E+00
5243.2002       9.08039856E+00
5244.6001       9.07736969E+00
5246.0000       9.07055473E+00
5247.3999       9.06171894E+00
5248.7998       9.05894279E+00
5250.2002       9.04165077E+00
5251.6001       9.03281593E+00
5253.0000       9.03470898E+00
5254.3999       9.05048561E+00
5255.7998       9.05237961E+00
5257.2002       9.06045723E+00
5258.6001       9.06626320E+00
5260.0000       9.05566025E+00
5261.3999       9.01817513E+00
5262.7998       8.98535919E+00
5264.2002       8.96983528E+00
5265.6001       8.96390247E+00
5267.0000       8.96806717E+00
5268.3999       8.97475719E+00
5269.7998       8.98207760E+00
5271.2002       8.99154377E+00
5272.6001       8.99772835E+00
5274.0000       8.99532986E+00
5275.3999       9.00391293E+00
5276.7998       9.02208710E+00
5278.2002       9.01274776E+00
5279.6001       9.00631142E+00
5281.0000       9.01211643E+00
5282.3999       9.01615524E+00
5283.7998       9.02347565E+00
5285.2002       9.04859257E+00
5286.6001       9.06260300E+00
5288.0000       9.07017517E+00
5289.3999       9.09264183E+00
5290.7998       9.10614681E+00
5292.2002       9.10879707E+00
5293.6001       9.09251595E+00
5295.0000       9.06007767E+00
5296.3999       9.02953434E+00
5297.7998       9.02120399E+00
5299.2002       9.02145672E+00
5300.6001       9.02511692E+00
5302.0000       9.03597069E+00
5303.3999       9.04972839E+00
5304.7998       9.06045723E+00
5306.2002       9.06727219E+00
5307.6001       9.06070900E+00
5309.0000       9.07623386E+00
5310.3999       9.08860302E+00
5311.7998       9.08039856E+00
5313.2002       9.06058311E+00
5314.6001       9.04467964E+00
5316.0000       9.04127216E+00
5317.3999       9.04038906E+00
5318.7998       9.03925323E+00
5320.2002       9.03496170E+00
5321.6001       9.02751541E+00
5323.0000       9.02082539E+00
5324.3999       9.00833035E+00
5325.7998       8.98775673E+00
5327.2002       8.96289253E+00
5328.6001       8.95456314E+00
5330.0000       8.97463036E+00
5331.3999       9.00643730E+00
5332.7998       9.02978706E+00
5334.2002       9.03534031E+00
5335.6001       9.02827263E+00
5337.0000       9.01489353E+00
5338.3999       8.99810696E+00
5339.7998       8.98990250E+00
5341.2002       9.00668907E+00
5342.6001       9.02473831E+00
5344.0000       9.02082539E+00
5345.3999       9.01148605E+00
5346.7998       9.02991295E+00
5348.2002       9.02738857E+00
5349.6001       9.02991295E+00
5351.0000       9.04518509E+00
5352.3999       9.07093239E+00
5353.7998       9.06108856E+00
5355.2002       9.06323433E+00
5356.6001       9.07068062E+00
5358.0000       9.06790352E+00
5359.3999       9.05275726E+00
5360.7998       9.03647614E+00
5362.2002       9.02612686E+00
5363.6001       9.01199055E+00
5365.0000       8.99242783E+00
5366.3999       8.98043633E+00
5367.7998       8.98182487E+00
5369.2002       8.98687363E+00
5370.6001       8.98712635E+00
5372.0000       8.99722290E+00
5373.3999       9.01602936E+00
5374.7998       9.02032089E+00
5376.2002       9.03710747E+00
5377.6001       9.04152489E+00
5379.0000       9.02221394E+00
5380.3999       9.00833035E+00
5381.7998       9.00656319E+00
5383.2002       9.01817513E+00
5384.6001       9.02726269E+00
5386.0000       9.00769901E+00
5387.3999       9.01855373E+00
5388.7998       9.01224327E+00
5390.2002       8.99949455E+00
5391.6001       8.99179649E+00
5393.0000       8.99596119E+00
5394.3999       8.99659252E+00
5395.7998       8.99570847E+00
5397.2002       8.98687363E+00
5398.6001       8.98636818E+00
5400.0000       8.99987411E+00
5401.3999       9.00454330E+00
5402.7998       8.99431992E+00
5404.2002       8.97084427E+00
5405.6001       8.97084427E+00
5407.0000       8.97627163E+00
5408.3999       8.97791290E+00
5409.7998       8.99873734E+00
5411.2002       9.00113583E+00
5412.6001       8.98763084E+00
5414.0000       8.99040794E+00
5415.3999       9.00113583E+00
5416.7998       9.01804924E+00
5418.2002       9.02776718E+00
5419.6001       9.02246666E+00
5421.0000       9.01590347E+00
5422.3999       8.99507713E+00
5423.7998       8.97690296E+00
5425.2002       8.99431992E+00
5426.6001       8.99621391E+00
5428.0000       8.99242783E+00
5429.3999       8.98965073E+00
5430.7998       8.98535919E+00
5432.2002       8.98056316E+00
5433.6001       8.98220444E+00
5435.0000       8.98725224E+00
5436.3999       9.01893234E+00
5437.7998       9.03016567E+00
5439.2002       9.03862190E+00
5440.6001       9.03862190E+00
5442.0000       9.02574730E+00
5443.3999       9.00833035E+00
5444.7998       8.99053383E+00
5446.2002       8.98081589E+00
5447.6001       8.99659252E+00
5449.0000       9.00934029E+00
5450.3999       9.01804924E+00
5451.7998       9.01766968E+00
5453.2002       9.00328159E+00
5454.6001       8.98573780E+00
5456.0000       8.99280548E+00
5457.3999       9.00782585E+00
5458.7998       9.01098061E+00
5460.2002       8.99899101E+00
5461.6001       8.98207760E+00
5463.0000       8.97980499E+00
5464.3999       8.98649502E+00
5465.7998       8.98624229E+00
5467.2002       8.98965073E+00
5468.6001       9.00479603E+00
5470.0000       9.00971794E+00
5471.3999       9.00302887E+00
5472.7998       8.99406815E+00
5474.2002       8.98611641E+00
5475.6001       8.95279503E+00
5477.0000       8.94661140E+00
5478.3999       8.95241737E+00
5479.7998       8.96554375E+00
5481.2002       8.97967911E+00
5482.6001       8.99608803E+00
5484.0000       9.00719452E+00
5485.3999       9.01691246E+00
5486.7998       9.00302887E+00
5488.2002       9.00050545E+00
5489.6001       9.01577759E+00
5491.0000       9.03862190E+00
5492.3999       9.03142738E+00
5493.7998       9.02448559E+00
5495.2002       9.01602936E+00
5496.6001       9.00870895E+00
5498.0000       9.00239754E+00
5499.3999       8.99974823E+00
5500.7998       8.98990250E+00
5502.2002       8.98245621E+00
5503.6001       8.98447609E+00
5505.0000       8.98409653E+00
5506.3999       8.99154377E+00
5507.7998       9.00164032E+00
5509.2002       9.00315571E+00
5510.6001       8.99343681E+00
5512.0000       8.98649502E+00
5513.3999       8.99545670E+00
5514.7998       9.00618458E+00
5516.2002       9.01034927E+00
5517.6001       9.00732040E+00
5519.0000       9.00631142E+00
5520.3999       8.99835968E+00
5521.7998       8.99659252E+00
5523.2002       8.99785423E+00
5524.6001       8.98447609E+00
5526.0000       8.97488308E+00
5527.3999       8.96756268E+00
5528.7998       8.96768951E+00
5530.2002       8.98876667E+00
5531.6001       8.99305820E+00
5533.0000       8.98359203E+00
5534.3999       8.97374725E+00
5535.7998       8.97437859E+00
5537.2002       8.98838806E+00
5538.6001       8.99709702E+00
5540.0000       9.00580597E+00
5541.3999       9.02170944E+00
5542.7998       9.02574730E+00
5544.2002       9.01615524E+00
5545.6001       9.00769901E+00
5547.0000       9.00201988E+00
5548.3999       9.00681591E+00
5549.7998       8.99204826E+00
5551.2002       8.97904778E+00
5552.6001       8.98283482E+00
5554.0000       8.99482536E+00
5555.3999       9.00000000E+00
5556.7998       9.00366020E+00
5558.2002       9.00429153E+00
5559.6001       8.99394226E+00
5561.0000       8.98611641E+00
5562.3999       8.98725224E+00
5563.7998       8.99381542E+00
5565.2002       8.99545670E+00
5566.6001       9.00088310E+00
5568.0000       8.99924278E+00
5569.3999       8.97829056E+00
5570.7998       8.98018456E+00
5572.2002       8.97652435E+00
5573.6001       8.96428108E+00
5575.0000       8.97324276E+00
5576.3999       8.99520397E+00
5577.7998       9.00530052E+00
5579.2002       8.99823284E+00
5580.6001       8.96667957E+00
5582.0000       8.97311592E+00
5583.3999       8.96895123E+00
5584.7998       8.95708656E+00
5586.2002       8.94156265E+00
5587.6001       8.95115471E+00
5589.0000       8.96794128E+00
5590.3999       8.98157310E+00
5591.7998       8.97702885E+00
5593.2002       8.95645618E+00
5594.6001       8.95166016E+00
5596.0000       8.95216465E+00
5597.3999       8.95115471E+00
5598.7998       8.95191193E+00
5600.2002       8.96453381E+00
5601.6001       8.96958256E+00
5603.0000       8.96768951E+00
5604.3999       8.98611641E+00
5605.7998       9.00050545E+00
5607.2002       9.00252438E+00
5608.6001       9.00555325E+00
5610.0000       8.99671841E+00
5611.3999       8.98472786E+00
5612.7998       8.97046566E+00
5614.2002       8.95065022E+00
5615.6001       8.94724274E+00
5617.0000       8.95065022E+00
5618.3999       8.95696068E+00
5619.7998       8.97210693E+00
5621.2002       8.96920395E+00
5622.6001       8.96226120E+00
5624.0000       8.95872784E+00
5625.3999       8.96667957E+00
5626.7998       8.97311592E+00
5628.2002       8.98245621E+00
5629.6001       8.99015522E+00
5631.0000       9.00391293E+00
5632.3999       8.98005867E+00
5633.7998       8.96756268E+00
5635.2002       8.96314526E+00
5636.6001       8.96781540E+00
5638.0000       8.95898056E+00
5639.3999       8.95166016E+00
5640.7998       8.95557213E+00
5642.2002       8.96882439E+00
5643.6001       8.97488308E+00
5645.0000       8.97892189E+00
5646.3999       8.98712635E+00
5647.7998       8.99192238E+00
5649.2002       8.99608803E+00
5650.6001       8.98800945E+00
5652.0000       8.98043633E+00
5653.3999       8.97841740E+00
5654.7998       8.96087360E+00
5656.2002       8.94320297E+00
5657.6001       8.93853378E+00
5659.0000       8.93398952E+00
5660.3999       8.93020344E+00
5661.7998       8.93878555E+00
5663.2002       8.95595169E+00
5664.6001       8.96226120E+00
5666.0000       8.95557213E+00
5667.3999       8.95216465E+00
5668.7998       8.95153332E+00
5670.2002       8.95456314E+00
5671.6001       8.95090294E+00
5673.0000       8.95645618E+00
5674.3999       8.96882439E+00
5675.7998       8.98106766E+00
5677.2002       8.97008705E+00
5678.6001       8.97627163E+00
5680.0000       8.97033978E+00
5681.3999       8.94812584E+00
5682.7998       8.94358253E+00
5684.2002       8.94459152E+00
5685.6001       8.94257164E+00
5687.0000       8.94029999E+00
5688.3999       8.94951439E+00
5689.7998       8.96301937E+00
5691.2002       8.96579552E+00
5692.6001       8.96112633E+00
5694.0000       8.95860100E+00
5695.3999       8.98132038E+00
5696.7998       8.98195076E+00
5698.2002       8.96617508E+00
5699.6001       8.96137810E+00
5701.0000       8.96352386E+00
5702.3999       8.96920395E+00
5703.7998       8.96301937E+00
5705.2002       8.94711590E+00
5706.6001       8.92995071E+00
5708.0000       8.91922283E+00
5709.3999       8.92086315E+00
5710.7998       8.91960144E+00
5712.2002       8.91808701E+00
5713.6001       8.92364025E+00
5715.0000       8.94396019E+00
5716.3999       8.96781540E+00
5717.7998       8.96137810E+00
5719.2002       8.96125221E+00
5720.6001       8.96794128E+00
5722.0000       8.97160149E+00
5723.3999       8.99760246E+00
5724.7998       8.99772835E+00
5726.2002       8.98333931E+00
5727.6001       8.96465969E+00
5729.0000       8.95001888E+00
5730.3999       8.94345570E+00
5731.7998       8.94396019E+00
5733.2002       8.95304871E+00
5734.6001       8.96882439E+00
5736.0000       8.96024227E+00
5737.3999       8.95367908E+00
5738.7998       8.95834923E+00
5740.2002       8.96680546E+00
5741.6001       8.96541786E+00
5743.0000       8.95872784E+00
5744.3999       8.96327209E+00
5745.7998       8.97084427E+00
5747.2002       8.95910645E+00
5748.6001       8.95759201E+00
5750.0000       8.96099949E+00
5751.3999       8.94598007E+00
5752.7998       8.93537807E+00
5754.2002       8.94130993E+00
5755.6001       8.95733929E+00
5757.0000       8.96592140E+00
5758.3999       8.96831989E+00
5759.7998       8.96579552E+00
5761.2002       8.94774723E+00
5762.6001       8.92364025E+00
5764.0000       8.93739700E+00
5765.3999       8.95784378E+00
5766.7998       8.97942734E+00
5768.2002       8.98952484E+00
5769.6001       8.95885468E+00
5771.0000       8.96339798E+00
5772.3999       8.96175671E+00
5773.7998       8.95847511E+00
5775.2002       8.95910645E+00
5776.6001       8.95860100E+00
5778.0000       8.94534874E+00
5779.3999       8.93260193E+00
5780.7998       8.92919350E+00
5782.2002       8.93512535E+00
5783.6001       8.92237854E+00
5785.0000       8.93171787E+00
5786.3999       8.94799995E+00
5787.7998       8.94560146E+00
5789.2002       8.94168854E+00
5790.6001       8.93739700E+00
5792.0000       8.93676662E+00
5793.3999       8.94547462E+00
5794.7998       8.95670891E+00
5796.2002       8.94598007E+00
5797.6001       8.94168854E+00
5799.0000       8.95216465E+00
5800.3999       8.94850445E+00
5801.7998       8.95342636E+00
5803.2002       8.95961189E+00
5804.6001       8.94635868E+00
5806.0000       8.93739700E+00
5807.3999       8.94042683E+00
5808.7998       8.94307709E+00
5810.2002       8.93929100E+00
5811.6001       8.93878555E+00
5813.0000       8.94017410E+00
5814.3999       8.94295120E+00
5815.7998       8.95254326E+00
5817.2002       8.96364975E+00
5818.6001       8.96667957E+00
5820.0000       8.96264076E+00
5821.3999       8.95822334E+00
5822.7998       8.95620346E+00
5824.2002       8.94042683E+00
5825.6001       8.92364025E+00
5827.0000       8.93802834E+00
5828.3999       8.94484425E+00
5829.7998       8.94269848E+00
5831.2002       8.93184471E+00
5832.6001       8.94295120E+00
5834.0000       8.95721340E+00
5835.3999       8.95733929E+00
5836.7998       8.95582485E+00
5838.2002       8.95569801E+00
5839.6001       8.93525124E+00
5841.0000       8.92995071E+00
5842.3999       8.94547462E+00
5843.7998       8.95367908E+00
5845.2002       8.95014572E+00
5846.6001       8.94888306E+00
5848.0000       8.95292187E+00
5849.3999       8.95191193E+00
5850.7998       8.94446564E+00
5852.2002       8.93626213E+00
5853.6001       8.93121338E+00
5855.0000       8.91947556E+00
5856.3999       8.91026115E+00
5857.7998       8.91278553E+00
5859.2002       8.91682434E+00
5860.6001       8.92982483E+00
5862.0000       8.94370842E+00
5863.3999       8.93045616E+00
5864.7998       8.92704773E+00
5866.2002       8.92931938E+00
5867.6001       8.92717361E+00
5869.0000       8.96099949E+00
5870.3999       8.95809650E+00
5871.7998       8.95128059E+00
5873.2002       8.93790245E+00
5874.6001       8.92401886E+00
5876.0000       8.91063976E+00
5877.3999       8.92326164E+00
5878.7998       8.92868805E+00
5880.2002       8.92414474E+00
5881.6001       8.92086315E+00
5883.0000       8.90130043E+00
5884.3999       8.90167809E+00
5885.7998       8.90836811E+00
5887.2002       8.88325119E+00
5888.6001       8.84513474E+00
5890.0000       8.83932877E+00
5891.3999       8.83617306E+00
5892.7998       8.82115364E+00
5894.2002       8.82127953E+00
5895.6001       8.82506657E+00
5897.0000       8.84210587E+00
5898.3999       8.87264919E+00
5899.7998       8.90571785E+00
5901.2002       8.93790245E+00
5902.6001       8.92603874E+00
5904.0000       8.90874672E+00
5905.3999       8.92098999E+00
5906.7998       8.93260193E+00
5908.2002       8.93398952E+00
5909.6001       8.93159103E+00
5911.0000       8.92098999E+00
5912.3999       8.91922283E+00
5913.7998       8.93335915E+00
5915.2002       8.95077610E+00
5916.6001       8.94156265E+00
5918.0000       8.92969894E+00
5919.3999       8.91909599E+00
5920.7998       8.90672684E+00
5922.2002       8.90331936E+00
5923.6001       8.92439747E+00
5925.0000       8.93222237E+00
5926.3999       8.92288303E+00
5927.7998       8.90407658E+00
5929.2002       8.89663029E+00
5930.6001       8.90445518E+00
5932.0000       8.91543579E+00
5933.3999       8.92275620E+00
5934.7998       8.92616463E+00
5936.2002       8.91884422E+00
5937.6001       8.90925217E+00
5939.0000       8.90660095E+00
5940.3999       8.90660095E+00
5941.7998       8.90609646E+00
5943.2002       8.90559196E+00
5944.6001       8.90508652E+00
5946.0000       8.90470791E+00
5947.3999       8.90420341E+00
5948.7998       8.90369797E+00
5950.2002       8.90319347E+00
5951.6001       8.90268898E+00
5953.0000       8.90218353E+00
5954.3999       8.90167809E+00
5955.7998       8.90117359E+00
5957.2002       8.90066910E+00
5958.6001       8.90016365E+00
5960.0000       8.89965916E+00
5961.3999       8.89915466E+00
5962.7998       8.89864922E+00
5964.2002       8.89814472E+00
5965.6001       8.89764023E+00
5967.0000       8.89713478E+00
5968.3999       8.89650345E+00
5969.7998       8.89599895E+00
5971.2002       8.89549446E+00
5972.6001       8.89498901E+00
5974.0000       8.89448452E+00
5975.3999       8.89385319E+00
5976.7998       8.89334869E+00
5978.2002       8.89284325E+00
5979.6001       8.89221191E+00
5981.0000       8.89170837E+00
5982.3999       8.89107704E+00
5983.7998       8.89057159E+00
5985.2002       8.89006710E+00
5986.6001       8.88943577E+00
5988.0000       8.88893127E+00
5989.3999       8.88829994E+00
5990.7998       8.88779449E+00
5992.2002       8.88716412E+00
5993.6001       8.88640690E+00
5995.0000       8.88766861E+00
5996.3999       8.87731934E+00
5997.7998       8.86722183E+00
5999.2002       8.87593079E+00
6000.6001       8.87403774E+00
6002.0000       8.88716412E+00
6003.3999       8.88501835E+00
6004.7998       8.87681389E+00
6006.2002       8.86431885E+00
6007.6001       8.87050343E+00
6009.0000       8.88956261E+00
6010.3999       8.87870789E+00
6011.7998       8.86469841E+00
6013.2002       8.84942627E+00
6014.6001       8.83541584E+00
6016.0000       8.83642578E+00
6017.3999       8.84122181E+00
6018.7998       8.85157204E+00
6020.2002       8.85611534E+00
6021.6001       8.85674667E+00
6023.0000       8.86318302E+00
6024.3999       8.86911583E+00
6025.7998       8.87239647E+00
6027.2002       8.88097954E+00
6028.6001       8.89498901E+00
6030.0000       8.89991188E+00
6031.3999       8.88880539E+00
6032.7998       8.87138748E+00
6034.2002       8.88072681E+00
6035.6001       8.88022232E+00
6037.0000       8.87479496E+00
6038.3999       8.87795067E+00
6039.7998       8.86520195E+00
6041.2002       8.83819294E+00
6042.6001       8.82216358E+00
6044.0000       8.83781433E+00
6045.3999       8.86002731E+00
6046.7998       8.87719345E+00
6048.2002       8.87403774E+00
6049.6001       8.86999893E+00
6051.0000       8.87921238E+00
6052.3999       8.88564873E+00
6053.7998       8.88312531E+00
6055.2002       8.87845516E+00
6056.6001       8.87656212E+00
6058.0000       8.88186264E+00
6059.3999       8.87769794E+00
6060.7998       8.88047409E+00
6062.2002       8.86659050E+00
6063.6001       8.85851288E+00
6065.0000       8.86242580E+00
6066.3999       8.87277603E+00
6067.7998       8.89435768E+00
6069.2002       8.88539696E+00
6070.6001       8.88451385E+00
6072.0000       8.88918304E+00
6073.3999       8.88173676E+00
6074.7998       8.87176514E+00
6076.2002       8.85851288E+00
6077.6001       8.85813522E+00
6079.0000       8.86381435E+00
6080.3999       8.87012482E+00
6081.7998       8.87694073E+00
6083.2002       8.86936760E+00
6084.6001       8.85485268E+00
6086.0000       8.85661983E+00
6087.3999       8.86356163E+00
6088.7998       8.85535812E+00
6090.2002       8.85207653E+00
6091.6001       8.85939693E+00
6093.0000       8.84993076E+00
6094.3999       8.82531929E+00
6095.7998       8.83440590E+00
6097.2002       8.85914421E+00
6098.6001       8.86179543E+00
6100.0000       8.85005665E+00
6101.3999       8.82973671E+00
6102.7998       8.81799889E+00
6104.2002       8.82733822E+00
6105.6001       8.86444473E+00
6107.0000       8.87340641E+00
6108.3999       8.89284325E+00
6109.7998       8.89700890E+00
6111.2002       8.88501835E+00
6112.6001       8.87731934E+00
6114.0000       8.87542629E+00
6115.3999       8.89271736E+00
6116.7998       8.88766861E+00
6118.2002       8.88375664E+00
6119.6001       8.86924171E+00
6121.0000       8.85460091E+00
6122.3999       8.85535812E+00
6123.7998       8.86532879E+00
6125.2002       8.87996960E+00
6126.6001       8.88388252E+00
6128.0000       8.87403774E+00
6129.3999       8.87100792E+00
6130.7998       8.87807655E+00
6132.2002       8.88161087E+00
6133.6001       8.87277603E+00
6135.0000       8.86103821E+00
6136.3999       8.83945465E+00
6137.7998       8.82317352E+00
6139.2002       8.82986259E+00
6140.6001       8.83882332E+00
6142.0000       8.84374619E+00
6143.3999       8.84765816E+00
6144.7998       8.85548401E+00
6146.2002       8.85788155E+00
6147.6001       8.84677505E+00
6149.0000       8.84740639E+00
6150.3999       8.85409546E+00
6151.7998       8.86280441E+00
6153.2002       8.87567902E+00
6154.6001       8.87429047E+00
6156.0000       8.86873627E+00
6157.3999       8.85826111E+00
6158.7998       8.86065865E+00
6160.2002       8.85497856E+00
6161.6001       8.83099842E+00
6163.0000       8.82481384E+00
6164.3999       8.82632828E+00
6165.7998       8.84753227E+00
6167.2002       8.84728050E+00
6168.6001       8.83137703E+00
6170.0000       8.81875610E+00
6171.3999       8.83730888E+00
6172.7998       8.84866905E+00
6174.2002       8.86394024E+00
6175.6001       8.85788155E+00
6177.0000       8.84374619E+00
6178.3999       8.83642578E+00
6179.7998       8.84071732E+00
6181.2002       8.84374619E+00
6182.6001       8.85901833E+00
6184.0000       8.87555218E+00
6185.3999       8.87567902E+00
6186.7998       8.86734772E+00
6188.2002       8.85573673E+00
6189.6001       8.85157204E+00
6191.0000       8.85295963E+00
6192.3999       8.85030937E+00
6193.7998       8.85194969E+00
6195.2002       8.85762978E+00
6196.6001       8.86419296E+00
6198.0000       8.86936760E+00
6199.3999       8.86419296E+00
6200.7998       8.85939693E+00
6202.2002       8.85800838E+00
6203.6001       8.85119247E+00
6205.0000       8.85068798E+00
6206.3999       8.85472679E+00
6207.7998       8.85939693E+00
6209.2002       8.85863972E+00
6210.6001       8.86242580E+00
6212.0000       8.85346413E+00
6213.3999       8.84854221E+00
6214.7998       8.85106659E+00
6216.2002       8.85131836E+00
6217.6001       8.85788155E+00
6219.0000       8.84854221E+00
6220.3999       8.84967804E+00
6221.7998       8.85422134E+00
6223.2002       8.85762978E+00
6224.6001       8.85838699E+00
6226.0000       8.85851288E+00
6227.3999       8.85144520E+00
6228.7998       8.84690094E+00
6230.2002       8.82493973E+00
6231.6001       8.82077503E+00
6233.0000       8.82948399E+00
6234.3999       8.83895016E+00
6235.7998       8.85283375E+00
6237.2002       8.83819294E+00
6238.6001       8.82027054E+00
6240.0000       8.81799889E+00
6241.3999       8.82443523E+00
6242.7998       8.82279396E+00
6244.2002       8.82405663E+00
6245.6001       8.81761932E+00
6247.0000       8.82090187E+00
6248.3999       8.83188248E+00
6249.7998       8.82784271E+00
6251.2002       8.82670689E+00
6252.6001       8.81963921E+00
6254.0000       8.81345463E+00
6255.3999       8.81686211E+00
6256.7998       8.81345463E+00
6258.2002       8.82115364E+00
6259.6001       8.82708549E+00
6261.0000       8.82771683E+00
6262.3999       8.83693027E+00
6263.7998       8.83768845E+00
6265.2002       8.82569695E+00
6266.6001       8.83794022E+00
6268.0000       8.84816360E+00
6269.3999       8.84197903E+00
6270.7998       8.82241631E+00
6272.2002       8.83289146E+00
6273.6001       8.83364868E+00
6275.0000       8.82443523E+00
6276.3999       8.81004715E+00
6277.7998       8.78543472E+00
6279.2002       8.77420235E+00
6280.6001       8.78202724E+00
6282.0000       8.80499840E+00
6283.3999       8.82443523E+00
6284.7998       8.83680439E+00
6286.2002       8.83743477E+00
6287.6001       8.83629990E+00
6289.0000       8.83844566E+00
6290.3999       8.83844566E+00
6291.7998       8.83566856E+00
6293.2002       8.83276558E+00
6294.6001       8.82847404E+00
6296.0000       8.81774521E+00
6297.3999       8.80638695E+00
6298.7998       8.80613422E+00
6300.2002       8.81825066E+00
6301.6001       8.81913376E+00
6303.0000       8.81623077E+00
6304.3999       8.82191086E+00
6305.7998       8.82342529E+00
6307.2002       8.81976509E+00
6308.6001       8.81244469E+00
6310.0000       8.80802727E+00
6311.3999       8.81534767E+00
6312.7998       8.82266808E+00
6314.2002       8.81938648E+00
6315.6001       8.81282330E+00
6317.0000       8.80259991E+00
6318.3999       8.79780388E+00
6319.7998       8.81433868E+00
6321.2002       8.81749344E+00
6322.6001       8.81938648E+00
6324.0000       8.82292080E+00
6325.3999       8.83087158E+00
6326.7998       8.81951332E+00
6328.2002       8.82052231E+00
6329.6001       8.82216358E+00
6331.0000       8.82658100E+00
6332.3999       8.83036709E+00
6333.7998       8.81623077E+00
6335.2002       8.81837654E+00
6336.6001       8.80790138E+00
6338.0000       8.79654121E+00
6339.3999       8.79603672E+00
6340.7998       8.81408501E+00
6342.2002       8.81370735E+00
6343.6001       8.80764866E+00
6345.0000       8.79401779E+00
6346.3999       8.78467751E+00
6347.7998       8.79616356E+00
6349.2002       8.81761932E+00
6350.6001       8.82367802E+00
6352.0000       8.82292080E+00
6353.3999       8.82443523E+00
6354.7998       8.83200836E+00
6356.2002       8.82594967E+00
6357.6001       8.80676460E+00
6359.0000       8.80146408E+00
6360.3999       8.81471634E+00
6361.7998       8.81017303E+00
6363.2002       8.80487251E+00
6364.6001       8.81421185E+00
6366.0000       8.80537701E+00
6367.3999       8.79893970E+00
6368.7998       8.80714417E+00
6370.2002       8.80411530E+00
6371.6001       8.78669739E+00
6373.0000       8.80398846E+00
6374.3999       8.81206608E+00
6375.7998       8.81963921E+00
6377.2002       8.81143570E+00
6378.6001       8.79982376E+00
6380.0000       8.81282330E+00
6381.3999       8.81358051E+00
6382.7998       8.80461884E+00
6384.2002       8.79225063E+00
6385.6001       8.81597900E+00
6387.0000       8.82380486E+00
6388.3999       8.81850338E+00
6389.7998       8.81219292E+00
6391.2002       8.81433868E+00
6392.6001       8.81370735E+00
6394.0000       8.81042480E+00
6395.3999       8.80777550E+00
6396.7998       8.80449295E+00
6398.2002       8.79944420E+00
6399.6001       8.78480339E+00
6401.0000       8.79540634E+00
6402.3999       8.80790138E+00
6403.7998       8.81421185E+00
6405.2002       8.81194019E+00
6406.6001       8.80234718E+00
6408.0000       8.80032825E+00
6409.3999       8.79792976E+00
6410.7998       8.79742527E+00
6412.2002       8.79376507E+00
6413.6001       8.80196953E+00
6415.0000       8.81534767E+00
6416.3999       8.81509590E+00
6417.7998       8.80651283E+00
6419.2002       8.79843521E+00
6420.6001       8.78530884E+00
6422.0000       8.77230835E+00
6423.3999       8.78152275E+00
6424.7998       8.79906654E+00
6426.2002       8.82014370E+00
6427.6001       8.82418251E+00
6429.0000       8.81029892E+00
6430.3999       8.79919243E+00
6431.7998       8.79010487E+00
6433.2002       8.78997803E+00
6434.6001       8.80588150E+00
6436.0000       8.81888199E+00
6437.3999       8.81332779E+00
6438.7998       8.78985214E+00
6440.2002       8.80184269E+00
6441.6001       8.81055164E+00
6443.0000       8.81332779E+00
6444.3999       8.81888199E+00
6445.7998       8.81459045E+00
6447.2002       8.82292080E+00
6448.6001       8.79603672E+00
6450.0000       8.77912426E+00
6451.3999       8.79426956E+00
6452.7998       8.81080437E+00
6454.2002       8.79414368E+00
6455.6001       8.77571678E+00
6457.0000       8.77962875E+00
6458.3999       8.78871632E+00
6459.7998       8.79792976E+00
6461.2002       8.78581333E+00
6462.6001       8.77659988E+00
6464.0000       8.77634716E+00
6465.3999       8.78328896E+00
6466.7998       8.80222130E+00
6468.2002       8.79704666E+00
6469.6001       8.77874565E+00
6471.0000       8.77659988E+00
6472.3999       8.78758049E+00
6473.7998       8.80070686E+00
6475.2002       8.80916309E+00
6476.6001       8.81370735E+00
6478.0000       8.81067848E+00
6479.3999       8.80007553E+00
6480.7998       8.79262924E+00
6482.2002       8.80020142E+00
6483.6001       8.80373573E+00
6485.0000       8.79805565E+00
6486.3999       8.78770638E+00
6487.7998       8.80689144E+00
6489.2002       8.80373573E+00
6490.6001       8.78985214E+00
6492.0000       8.77849293E+00
6493.3999       8.76789093E+00
6494.7998       8.75198746E+00
6496.2002       8.75337601E+00
6497.6001       8.76448345E+00
6499.0000       8.78972626E+00
6500.3999       8.80461884E+00
6501.7998       8.82228947E+00
6503.2002       8.83667755E+00
6504.6001       8.83642578E+00
6506.0000       8.82203674E+00
6507.3999       8.80853271E+00
6508.7998       8.80436707E+00
6510.2002       8.80878448E+00
6511.6001       8.80436707E+00
6513.0000       8.80739594E+00
6514.3999       8.81282330E+00
6515.7998       8.81143570E+00
6517.2002       8.81509590E+00
6518.6001       8.82254219E+00
6520.0000       8.82872677E+00
6521.3999       8.83314419E+00
6522.7998       8.83188248E+00
6524.2002       8.82620239E+00
6525.6001       8.82468796E+00
6527.0000       8.83036709E+00
6528.3999       8.83528996E+00
6529.7998       8.82998848E+00
6531.2002       8.82292080E+00
6532.6001       8.81711483E+00
6534.0000       8.80714417E+00
6535.3999       8.81433868E+00
6536.7998       8.82771683E+00
6538.2002       8.82077503E+00
6539.6001       8.81648350E+00
6541.0000       8.81067848E+00
6542.3999       8.80058098E+00
6543.7998       8.78543472E+00
6545.2002       8.77697849E+00
6546.6001       8.77697849E+00
6548.0000       8.77091980E+00
6549.3999       8.76221085E+00
6550.7998       8.77558994E+00
6552.2002       8.75564766E+00
6553.6001       8.73015213E+00
6555.0000       8.71021080E+00
6556.3999       8.68092918E+00
6557.7998       8.65455055E+00
6559.2002       8.62160778E+00
6560.6001       8.57364655E+00
6562.0000       8.51028633E+00
6563.3999       8.51344204E+00
6564.7998       8.56582069E+00
6566.2002       8.62261772E+00
6567.6001       8.66578293E+00
6569.0000       8.69784164E+00
6570.3999       8.71071625E+00
6571.7998       8.71727943E+00
6573.2002       8.73242474E+00
6574.6001       8.74189091E+00
6576.0000       8.75741577E+00
6577.3999       8.77293968E+00
6578.7998       8.77369690E+00
6580.2002       8.78227997E+00
6581.6001       8.79098892E+00
6583.0000       8.78783321E+00
6584.3999       8.78568745E+00
6585.7998       8.77041531E+00
6587.2002       8.76221085E+00
6588.6001       8.77811432E+00
6590.0000       8.77861977E+00
6591.3999       8.77003670E+00
6592.7998       8.75400734E+00
6594.2002       8.74403667E+00
6595.6001       8.76839638E+00
6597.0000       8.76801682E+00
6598.3999       8.76107597E+00
6599.7998       8.76271629E+00
6601.2002       8.77243423E+00
6602.6001       8.77710533E+00
6604.0000       8.76953125E+00
6605.3999       8.75754166E+00
6606.7998       8.77167702E+00
6608.2002       8.78190041E+00
6609.6001       8.78644466E+00
6611.0000       8.78669739E+00
6612.3999       8.77899742E+00
6613.7998       8.77685165E+00
6615.2002       8.77824020E+00
6616.6001       8.77849293E+00
6618.0000       8.77407551E+00
6619.3999       8.77672577E+00
6620.7998       8.77786255E+00
6622.2002       8.78379440E+00
6623.6001       8.78909492E+00
6625.0000       8.78871632E+00
6626.3999       8.78833771E+00
6627.7998       8.78240585E+00
6629.2002       8.77975464E+00
6630.6001       8.77331829E+00
6632.0000       8.76170635E+00
6633.3999       8.75855064E+00
6634.7998       8.75325012E+00
6636.2002       8.75842476E+00
6637.6001       8.77155113E+00
6639.0000       8.77584267E+00
6640.3999       8.78139591E+00
6641.7998       8.77735710E+00
6643.2002       8.78026009E+00
6644.6001       8.79591084E+00
6646.0000       8.78833771E+00
6647.3999       8.77874565E+00
6648.7998       8.77836704E+00
6650.2002       8.78530884E+00
6651.6001       8.78997803E+00
6653.0000       8.77861977E+00
6654.3999       8.76839638E+00
6655.7998       8.78429890E+00
6657.2002       8.76170635E+00
6658.6001       8.75236702E+00
6660.0000       8.75552177E+00
6661.3999       8.74857998E+00
6662.7998       8.75034714E+00
6664.2002       8.76322079E+00
6665.6001       8.76397896E+00
6667.0000       8.75829887E+00
6668.3999       8.75653172E+00
6669.7998       8.75918198E+00
6671.2002       8.76473618E+00
6672.6001       8.75754166E+00
6674.0000       8.74769688E+00
6675.3999       8.74277401E+00
6676.7998       8.73961830E+00
6678.2002       8.74239540E+00
6679.6001       8.74050236E+00
6681.0000       8.74870682E+00
6682.3999       8.76688194E+00
6683.7998       8.77773571E+00
6685.2002       8.77533722E+00
6686.6001       8.76069641E+00
6688.0000       8.74037552E+00
6689.3999       8.73292923E+00
6690.7998       8.73381233E+00
6692.2002       8.73936653E+00
6693.6001       8.74933720E+00
6695.0000       8.75451279E+00
6696.3999       8.75059891E+00
6697.7998       8.75438595E+00
6699.2002       8.76536655E+00
6700.6001       8.76246357E+00
6702.0000       8.76233768E+00
6703.3999       8.76120186E+00
6704.7998       8.74794960E+00
6706.2002       8.73810387E+00
6707.6001       8.73494911E+00
6709.0000       8.74277401E+00
6710.3999       8.74592972E+00
6711.7998       8.74845409E+00
6713.2002       8.74592972E+00
6714.6001       8.74327850E+00
6716.0000       8.74290085E+00
6717.3999       8.73368645E+00
6718.7998       8.73154068E+00
6720.2002       8.73494911E+00
6721.6001       8.76132774E+00
6723.0000       8.75135708E+00
6724.3999       8.74757004E+00
6725.7998       8.74529839E+00
6727.2002       8.74618149E+00
6728.6001       8.74731827E+00
6730.0000       8.75287151E+00
6731.3999       8.74996853E+00
6732.7998       8.73103619E+00
6734.2002       8.73065758E+00
6735.6001       8.72838593E+00
6737.0000       8.72838593E+00
6738.3999       8.74189091E+00
6739.7998       8.75438595E+00
6741.2002       8.73494911E+00
6742.6001       8.71765709E+00
6744.0000       8.71677399E+00
6745.3999       8.72119141E+00
6746.7998       8.72144413E+00
6748.2002       8.72081280E+00
6749.6001       8.72851181E+00
6751.0000       8.73621082E+00
6752.3999       8.73166752E+00
6753.7998       8.72573471E+00
6755.2002       8.73217201E+00
6756.6001       8.74656105E+00
6758.0000       8.74908447E+00
6759.3999       8.74125957E+00
6760.7998       8.75148296E+00
6762.2002       8.74820137E+00
6763.6001       8.73747349E+00
6765.0000       8.72560883E+00
6766.3999       8.71071625E+00
6767.7998       8.71500683E+00
6769.2002       8.73671532E+00
6770.6001       8.75425911E+00
6772.0000       8.75047302E+00
6773.3999       8.74567699E+00
6774.7998       8.74555111E+00
6776.2002       8.75337601E+00
6777.6001       8.74984169E+00
6779.0000       8.74605560E+00
6780.3999       8.74088097E+00
6781.7998       8.72586155E+00
6783.2002       8.72990036E+00
6784.6001       8.73469639E+00
6786.0000       8.73318195E+00
6787.3999       8.72308540E+00
6788.7998       8.71576405E+00
6790.2002       8.73545361E+00
6791.6001       8.73848343E+00
6793.0000       8.72788048E+00
6794.3999       8.72321129E+00
6795.7998       8.72018242E+00
6797.2002       8.73078346E+00
6798.6001       8.75173569E+00
6800.0000       8.75678444E+00
6801.3999       8.74504662E+00
6802.7998       8.73469639E+00
6804.2002       8.72788048E+00
6805.6001       8.72257996E+00
6807.0000       8.71816254E+00
6808.3999       8.71879387E+00
6809.7998       8.72548294E+00
6811.2002       8.73444366E+00
6812.6001       8.75059891E+00
6814.0000       8.76410484E+00
6815.3999       8.75880337E+00
6816.7998       8.74504662E+00
6818.2002       8.73835659E+00
6819.6001       8.73772621E+00
6821.0000       8.74479389E+00
6822.3999       8.73709488E+00
6823.7998       8.72939491E+00
6825.2002       8.72005558E+00
6826.6001       8.70819092E+00
6828.0000       8.72056007E+00
6829.3999       8.72636604E+00
6830.7998       8.72194862E+00
6832.2002       8.71841431E+00
6833.6001       8.72674561E+00
6835.0000       8.72182274E+00
6836.3999       8.71424961E+00
6837.7998       8.69784164E+00
6839.2002       8.69430733E+00
6840.6001       8.69632721E+00
6842.0000       8.69847298E+00
6843.3999       8.70352173E+00
6844.7998       8.71841431E+00
6846.2002       8.71626854E+00
6847.6001       8.71500683E+00
6849.0000       8.71652222E+00
6850.3999       8.72396851E+00
6851.7998       8.71917152E+00
6853.2002       8.71058941E+00
6854.6001       8.71399689E+00
6856.0000       8.72245407E+00
6857.3999       8.72826004E+00
6858.7998       8.72472572E+00
6860.2002       8.71185112E+00
6861.6001       8.70402622E+00
6863.0000       8.69127846E+00
6864.3999       8.67512321E+00
6865.7998       8.64962769E+00
6867.2002       8.59396744E+00
6868.6001       8.53817940E+00
6870.0000       8.51281071E+00
6871.3999       8.52517986E+00
6872.7998       8.54259777E+00
6874.2002       8.55648136E+00
6875.6001       8.56986046E+00
6877.0000       8.58349133E+00
6878.3999       8.60456848E+00
6879.7998       8.62589931E+00
6881.2002       8.64735603E+00
6882.6001       8.65467644E+00
6884.0000       8.64899635E+00
6885.3999       8.63271523E+00
6886.7998       8.62299633E+00
6888.2002       8.62034607E+00
6889.6001       8.60949135E+00
6891.0000       8.61908340E+00
6892.3999       8.61996746E+00
6893.7998       8.62388039E+00
6895.2002       8.62905502E+00
6896.6001       8.63107395E+00
6898.0000       8.64180183E+00
6899.3999       8.64634609E+00
6900.7998       8.64091873E+00
6902.2002       8.64155006E+00
6903.6001       8.65063763E+00
6905.0000       8.65821075E+00
6906.3999       8.65808392E+00
6907.7998       8.64899635E+00
6909.2002       8.65631676E+00
6910.6001       8.66729736E+00
6912.0000       8.66565704E+00
6913.3999       8.65555954E+00
6914.7998       8.64432716E+00
6916.2002       8.65417099E+00
6917.6001       8.67133713E+00
6919.0000       8.67386055E+00
6920.3999       8.67524910E+00
6921.7998       8.67436600E+00
6923.2002       8.67083168E+00
6924.6001       8.67890930E+00
6926.0000       8.69216156E+00
6927.3999       8.69556999E+00
6928.7998       8.68723965E+00
6930.2002       8.68256950E+00
6931.6001       8.68976402E+00
6933.0000       8.70390034E+00
6934.3999       8.70667648E+00
6935.7998       8.69897747E+00
6937.2002       8.69380283E+00
6938.6001       8.68484116E+00
6940.0000       8.67600632E+00
6941.3999       8.68913269E+00
6942.7998       8.70957947E+00
6944.2002       8.71260834E+00
6945.6001       8.70011330E+00
6947.0000       8.69683266E+00
6948.3999       8.67853069E+00
6949.7998       8.67890930E+00
6951.2002       8.68850136E+00
6952.6001       8.69885159E+00
6954.0000       8.69948196E+00
6955.3999       8.70377350E+00
6956.7998       8.70162773E+00
6958.2002       8.69885159E+00
6959.6001       8.69910431E+00
6961.0000       8.70730782E+00
6962.3999       8.71109390E+00
6963.7998       8.70844364E+00
6965.2002       8.70894814E+00
6966.6001       8.71399689E+00
6968.0000       8.72724915E+00
6969.3999       8.73229790E+00
6970.7998       8.72661877E+00
6972.2002       8.72510433E+00
6973.6001       8.72624016E+00
6975.0000       8.72220135E+00
6976.3999       8.70705605E+00
6977.7998       8.68837547E+00
6979.2002       8.68572521E+00
6980.6001       8.69556999E+00
6982.0000       8.69998741E+00
6983.3999       8.70667648E+00
6984.7998       8.71248245E+00
6986.2002       8.71273518E+00
6987.6001       8.70945358E+00
6989.0000       8.70289040E+00
6990.3999       8.69077396E+00
6991.7998       8.67890930E+00
6993.2002       8.67524910E+00
6994.6001       8.69670582E+00
6996.0000       8.70289040E+00
6997.3999       8.70061874E+00
6998.7998       8.69822025E+00
7000.2002       8.68723965E+00
7001.6001       8.68559837E+00
7003.0000       8.67903519E+00
7004.3999       8.68787098E+00
7005.7998       8.69721031E+00
7007.2002       8.69758987E+00
7008.6001       8.68206501E+00
7010.0000       8.67613220E+00
7011.3999       8.68244362E+00
7012.7998       8.69531727E+00
7014.2002       8.69216156E+00
7015.6001       8.67815208E+00
7017.0000       8.67461777E+00
7018.3999       8.68534660E+00
7019.7998       8.70061874E+00
7021.2002       8.69304562E+00
7022.6001       8.68509388E+00
7024.0000       8.68067646E+00
7025.3999       8.67588043E+00
7026.7998       8.68042374E+00
7028.2002       8.68963814E+00
7029.6001       8.68686104E+00
7031.0000       8.67524910E+00
7032.3999       8.67285156E+00
7033.7998       8.67777348E+00
7035.2002       8.67865753E+00
7036.6001       8.68017197E+00
7038.0000       8.68900681E+00
7039.3999       8.68761826E+00
7040.7998       8.69645309E+00
7042.2002       8.70680237E+00
7043.6001       8.69960880E+00
7045.0000       8.68723965E+00
7046.3999       8.68206501E+00
7047.7998       8.68244362E+00
7049.2002       8.68357944E+00
7050.6001       8.68749237E+00
7052.0000       8.68951225E+00
7053.3999       8.69392967E+00
7054.7998       8.70289040E+00
7056.2002       8.71664810E+00
7057.6001       8.71614265E+00
7059.0000       8.69582176E+00
7060.3999       8.69493866E+00
7061.7998       8.69847298E+00
7063.2002       8.69405556E+00
7064.6001       8.67196751E+00
7066.0000       8.67726898E+00
7067.3999       8.68004608E+00
7068.7998       8.68509388E+00
7070.2002       8.69405556E+00
7071.6001       8.70238495E+00
7073.0000       8.70213318E+00
7074.3999       8.69986153E+00
7075.7998       8.69481277E+00
7077.2002       8.70061874E+00
7078.6001       8.70718193E+00
7080.0000       8.70238495E+00
7081.3999       8.70806503E+00
7082.7998       8.71387100E+00
7084.2002       8.70768642E+00
7085.6001       8.71462822E+00
7087.0000       8.73305511E+00
7088.3999       8.73696899E+00
7089.7998       8.72523022E+00
7091.2002       8.71513367E+00
7092.6001       8.70541477E+00
7094.0000       8.69266701E+00
7095.3999       8.68294907E+00
7096.7998       8.67348289E+00
7098.2002       8.68547249E+00
7099.6001       8.68761826E+00
7101.0000       8.67689037E+00
7102.3999       8.67234612E+00
7103.7998       8.65467644E+00
7105.2002       8.65568542E+00
7106.6001       8.67335606E+00
7108.0000       8.68534660E+00
7109.3999       8.68597794E+00
7110.7998       8.67171478E+00
7112.2002       8.66654015E+00
7113.6001       8.67184162E+00
7115.0000       8.67222023E+00
7116.3999       8.67575455E+00
7117.7998       8.68749237E+00
7119.2002       8.68850136E+00
7120.6001       8.68092918E+00
7122.0000       8.67954063E+00
7123.3999       8.68458939E+00
7124.7998       8.68850136E+00
7126.2002       8.68332672E+00
7127.6001       8.68736649E+00
7129.0000       8.69556999E+00
7130.3999       8.70276451E+00
7131.7998       8.69859886E+00
7133.2002       8.69923019E+00
7134.6001       8.70415306E+00
7136.0000       8.69809437E+00
7137.3999       8.69430733E+00
7138.7998       8.69632721E+00
7140.2002       8.69986153E+00
7141.6001       8.70390034E+00
7143.0000       8.70465755E+00
7144.3999       8.69657898E+00
7145.7998       8.67588043E+00
7147.2002       8.66881180E+00
7148.6001       8.68711281E+00
7150.0000       8.70125008E+00
7151.3999       8.70364761E+00
7152.7998       8.69721031E+00
7154.2002       8.69102669E+00
7155.6001       8.69670582E+00
7157.0000       8.69897747E+00
7158.3999       8.71223068E+00
7159.7998       8.70213318E+00
7161.2002       8.68711281E+00
7162.6001       8.67272568E+00
7164.0000       8.64836502E+00
7165.3999       8.65240479E+00
7166.7998       8.66426849E+00
7168.2002       8.68181229E+00
7169.6001       8.69481277E+00
7171.0000       8.68799686E+00
7172.3999       8.66237545E+00
7173.7998       8.66123962E+00
7175.2002       8.66237545E+00
7176.6001       8.66351128E+00
7178.0000       8.67386055E+00
7179.3999       8.68181229E+00
7180.7998       8.65732670E+00
7182.2002       8.65177345E+00
7183.6001       8.65518093E+00
7185.0000       8.63776398E+00
7186.3999       8.61807442E+00
7187.7998       8.62804508E+00
7189.2002       8.65328789E+00
7190.6001       8.65379333E+00
7192.0000       8.64407444E+00
7193.3999       8.64495754E+00
7194.7998       8.65164757E+00
7196.2002       8.65720081E+00
7197.6001       8.64849186E+00
7199.0000       8.63233566E+00
7200.3999       8.62955952E+00
7201.7998       8.64192867E+00
7203.2002       8.66351128E+00
7204.6001       8.67310333E+00
7206.0000       8.66527843E+00
7207.3999       8.66856003E+00
7208.7998       8.66452122E+00
7210.2002       8.67348289E+00
7211.6001       8.68862820E+00
7213.0000       8.69001579E+00
7214.3999       8.69796753E+00
7215.7998       8.70554066E+00
7217.2002       8.70819092E+00
7218.6001       8.69986153E+00
7220.0000       8.68231773E+00
7221.3999       8.69216156E+00
7222.7998       8.67398739E+00
7224.2002       8.66906452E+00
7225.6001       8.67752075E+00
7227.0000       8.68307495E+00
7228.3999       8.67322922E+00
7229.7998       8.64470482E+00
7231.2002       8.64571571E+00
7232.6001       8.63751125E+00
7234.0000       8.62690926E+00
7235.3999       8.63410378E+00
7236.7998       8.64647293E+00
7238.2002       8.67714310E+00
7239.6001       8.67487049E+00
7241.0000       8.67095757E+00
7242.3999       8.66956902E+00
7243.7998       8.65669632E+00
7245.2002       8.64735603E+00
7246.6001       8.65455055E+00
7248.0000       8.65934563E+00
7249.3999       8.65290928E+00
7250.7998       8.64041424E+00
7252.2002       8.62564659E+00
7253.6001       8.62564659E+00
7255.0000       8.64407444E+00
7256.3999       8.65593910E+00
7257.7998       8.65303612E+00
7259.2002       8.65442371E+00
7260.6001       8.65025902E+00
7262.0000       8.63700676E+00
7263.3999       8.63145256E+00
7264.7998       8.64546204E+00
7266.2002       8.67966652E+00
7267.6001       8.68648243E+00
7269.0000       8.67714310E+00
7270.3999       8.66590881E+00
7271.7998       8.66641426E+00
7273.2002       8.66149139E+00
7274.6001       8.64924908E+00
7276.0000       8.62930679E+00
7277.3999       8.61365700E+00
7278.7998       8.62375355E+00
7280.2002       8.64356995E+00
7281.6001       8.64861774E+00
7283.0000       8.64723015E+00
7284.3999       8.64912224E+00
7285.7998       8.65619087E+00
7287.2002       8.66452122E+00
7288.6001       8.63738441E+00
7290.0000       8.62362766E+00
7291.3999       8.61832619E+00
7292.7998       8.62097740E+00
7294.2002       8.63637543E+00
7295.6001       8.63725853E+00
7297.0000       8.65669632E+00
7298.3999       8.67966652E+00
7299.7998       8.68484116E+00
7301.2002       8.68118095E+00
7302.6001       8.65518093E+00
7304.0000       8.63826847E+00
7305.3999       8.64293861E+00
7306.7998       8.64243317E+00
7308.2002       8.63258934E+00
7309.6001       8.62375355E+00
7311.0000       8.62754059E+00
7312.3999       8.63814163E+00
7313.7998       8.64432716E+00
7315.2002       8.64394760E+00
7316.6001       8.64117146E+00
7318.0000       8.63473415E+00
7319.3999       8.63183117E+00
7320.7998       8.64457893E+00
7322.2002       8.65858841E+00
7323.6001       8.64129734E+00
7325.0000       8.62122917E+00
7326.3999       8.61529732E+00
7327.7998       8.61441422E+00
7329.2002       8.61630630E+00
7330.6001       8.62817097E+00
7332.0000       8.64432716E+00
7333.3999       8.66073418E+00
7334.7998       8.66086102E+00
7336.2002       8.66313267E+00
7337.6001       8.64950180E+00
7339.0000       8.64760780E+00
7340.3999       8.65152073E+00
7341.7998       8.64180183E+00
7343.2002       8.63687992E+00
7344.6001       8.61580276E+00
7346.0000       8.60204506E+00
7347.3999       8.59447193E+00
7348.7998       8.58652020E+00
7350.2002       8.59750080E+00
7351.6001       8.61706448E+00
7353.0000       8.61920929E+00
7354.3999       8.61870575E+00
7355.7998       8.62085056E+00
7357.2002       8.63233566E+00
7358.6001       8.64155006E+00
7360.0000       8.63233566E+00
7361.3999       8.62072468E+00
7362.7998       8.60822868E+00
7364.2002       8.60343361E+00
7365.6001       8.60595703E+00
7367.0000       8.60217094E+00
7368.3999       8.60835552E+00
7369.7998       8.62400627E+00
7371.2002       8.63826847E+00
7372.6001       8.64041424E+00
7374.0000       8.63208389E+00
7375.3999       8.62413216E+00
7376.7998       8.63056946E+00
7378.2002       8.63738441E+00
7379.6001       8.63448143E+00
7381.0000       8.63120079E+00
7382.3999       8.61630630E+00
7383.7998       8.61062717E+00
7385.2002       8.60368538E+00
7386.6001       8.60519981E+00
7388.0000       8.59876251E+00
7389.3999       8.59384060E+00
7390.7998       8.59169579E+00
7392.2002       8.58424854E+00
7393.6001       8.59800529E+00
7395.0000       8.60330677E+00
7396.3999       8.59674358E+00
7397.7998       8.59194756E+00
7399.2002       8.60848141E+00
7400.6001       8.61807442E+00
7402.0000       8.64028740E+00
7403.3999       8.64382172E+00
7404.7998       8.62854958E+00
7406.2002       8.62968636E+00
7407.6001       8.62173462E+00
7409.0000       8.61832619E+00
7410.3999       8.61958885E+00
7411.7998       8.61857891E+00
7413.2002       8.62135506E+00
7414.6001       8.61933613E+00
7416.0000       8.61441422E+00
7417.3999       8.61226845E+00
7418.7998       8.61567593E+00
7420.2002       8.62754059E+00
7421.6001       8.63309383E+00
7423.0000       8.63107395E+00
7424.3999       8.62589931E+00
7425.7998       8.61504459E+00
7427.2002       8.61252022E+00
