#
# Spectrum of SAO76803, spectral type K5v
# Source: Jacoby, Hunter, & Christian, 1984, ApJ, 56, 257
#         Scaled to flux=1.0 at 5500 Angstroms.
#
# Wave: wavelength in Angstroms
# Flux: scaled flux normalized to 1.0 at 5500A then shifted
#       in order of spectral type
Wave            Flux
3510.0000       4.08701229E+00
3511.3999       4.09683228E+00
3512.8000       4.08356571E+00
3514.2000       4.06930256E+00
3515.6001       4.08296776E+00
3517.0000       4.10836697E+00
3518.3999       4.15884495E+00
3519.8000       4.13334656E+00
3521.2000       4.08490086E+00
3522.6001       4.05262947E+00
3524.0000       4.03557777E+00
3525.3999       4.04645443E+00
3526.8000       4.07792854E+00
3528.2000       4.11894417E+00
3529.6001       4.11679268E+00
3531.0000       4.10376453E+00
3532.3999       4.10928249E+00
3533.8000       4.11874485E+00
3535.2000       4.12292862E+00
3536.6001       4.11442184E+00
3538.0000       4.11079693E+00
3539.3999       4.12870502E+00
3540.8000       4.13629436E+00
3542.2000       4.13635445E+00
3543.6001       4.14099598E+00
3545.0000       4.12968159E+00
3546.3999       4.10691261E+00
3547.8000       4.10551834E+00
3549.2000       4.11065769E+00
3550.6001       4.10912323E+00
3552.0000       4.10880470E+00
3553.3999       4.10264969E+00
3554.8000       4.07227135E+00
3556.2000       4.08820724E+00
3557.6001       4.12623501E+00
3559.0000       4.12701225E+00
3560.3999       4.11328697E+00
3561.8000       4.09247017E+00
3563.2000       4.06794834E+00
3564.6001       4.05115509E+00
3566.0000       4.03507996E+00
3567.3999       4.03342628E+00
3568.8000       4.06101608E+00
3570.2000       4.09649372E+00
3571.6001       4.11266899E+00
3573.0000       4.08800793E+00
3574.3999       4.05639458E+00
3575.8000       4.06661320E+00
3577.2000       4.09312725E+00
3578.6001       4.08115578E+00
3580.0000       4.04513931E+00
3581.3999       4.03268909E+00
3582.8000       4.04780865E+00
3584.2000       4.06488037E+00
3585.6001       4.06464100E+00
3587.0000       4.05918312E+00
3588.3999       4.06065750E+00
3589.8000       4.06079674E+00
3591.2000       4.06513977E+00
3592.6001       4.07960129E+00
3594.0000       4.09894466E+00
3595.3999       4.11402416E+00
3596.8000       4.12416363E+00
3598.2000       4.13822746E+00
3599.6001       4.15679264E+00
3601.0000       4.15352631E+00
3602.3999       4.12027931E+00
3603.8000       4.10213184E+00
3605.2000       4.11089611E+00
3606.6001       4.09217167E+00
3608.0000       4.06750965E+00
3609.3999       4.07440281E+00
3610.8000       4.09454155E+00
3612.2000       4.09876537E+00
3613.6001       4.10603619E+00
3615.0000       4.12786865E+00
3616.3999       4.13179302E+00
3617.8000       4.11191273E+00
3619.2000       4.09890461E+00
3620.6001       4.10701180E+00
3622.0000       4.12294865E+00
3623.3999       4.12986088E+00
3624.8000       4.13187218E+00
3626.2000       4.15189266E+00
3627.6001       4.14806747E+00
3629.0000       4.13073730E+00
3630.3999       4.12023926E+00
3631.8000       4.10772896E+00
3633.2000       4.09860516E+00
3634.6001       4.11798763E+00
3636.0000       4.14031887E+00
3637.3999       4.16884422E+00
3638.8000       4.19796848E+00
3640.2000       4.19920349E+00
3641.6001       4.16854572E+00
3643.0000       4.15739059E+00
3644.3999       4.13545799E+00
3645.8000       4.12454224E+00
3647.2000       4.11250973E+00
3648.6001       4.11029911E+00
3650.0000       4.16848564E+00
3651.3999       4.18336678E+00
3652.8000       4.15942192E+00
3654.2000       4.14974117E+00
3655.6001       4.16962147E+00
3657.0000       4.20876503E+00
3658.3999       4.23625469E+00
3659.8000       4.23665333E+00
3661.2000       4.23067760E+00
3662.6001       4.20976067E+00
3664.0000       4.18938255E+00
3665.3999       4.18709183E+00
3666.8000       4.20657349E+00
3668.2000       4.21753025E+00
3669.6001       4.20019913E+00
3671.0000       4.18665314E+00
3672.3999       4.19135475E+00
3673.8000       4.19635487E+00
3675.2000       4.17386436E+00
3676.6001       4.17494011E+00
3678.0000       4.14358521E+00
3679.3999       4.13792801E+00
3680.8000       4.14764977E+00
3682.2000       4.16611576E+00
3683.6001       4.17695236E+00
3685.0000       4.16476059E+00
3686.3999       4.14364529E+00
3687.8000       4.13282871E+00
3689.2000       4.14665318E+00
3690.6001       4.17498016E+00
3692.0000       4.19041824E+00
3693.3999       4.15995979E+00
3694.8000       4.17778873E+00
3696.2000       4.17334652E+00
3697.6001       4.18511963E+00
3699.0000       4.21334648E+00
3700.3999       4.22948170E+00
3701.8000       4.22151375E+00
3703.2000       4.16864586E+00
3704.6001       4.14770889E+00
3706.0000       4.14033890E+00
3707.3999       4.12986088E+00
3708.8000       4.11806774E+00
3710.2000       4.13772869E+00
3711.6001       4.18340683E+00
3713.0000       4.20995998E+00
3714.3999       4.20717144E+00
3715.8000       4.18336678E+00
3717.2000       4.16057777E+00
3718.6001       4.14127445E+00
3720.0000       4.10296822E+00
3721.3999       4.08095646E+00
3722.8000       4.08866501E+00
3724.2000       4.11189270E+00
3725.6001       4.14185238E+00
3727.0000       4.14091682E+00
3728.3999       4.14332676E+00
3729.8000       4.13633442E+00
3731.2000       4.11225128E+00
3732.6001       4.08364582E+00
3734.0000       4.08912373E+00
3735.3999       4.06364536E+00
3736.8000       4.06089687E+00
3738.2000       4.07850552E+00
3739.6001       4.09966183E+00
3741.0000       4.12063789E+00
3742.3999       4.10790825E+00
3743.8000       4.11127472E+00
3745.2000       4.10888481E+00
3746.6001       4.08619499E+00
3748.0000       4.06011963E+00
3749.3999       4.06177330E+00
3750.8000       4.09067726E+00
3752.2000       4.11482048E+00
3753.6001       4.14229107E+00
3755.0000       4.15918350E+00
3756.3999       4.14219093E+00
3757.8000       4.11737061E+00
3759.2000       4.09268951E+00
3760.6001       4.10274887E+00
3762.0000       4.11806774E+00
3763.3999       4.11408329E+00
3764.8000       4.10697174E+00
3766.2000       4.11615562E+00
3767.6001       4.14179325E+00
3769.0000       4.15994072E+00
3770.3999       4.16699219E+00
3771.8000       4.16697216E+00
3773.2000       4.17115498E+00
3774.6001       4.18657398E+00
3776.0000       4.18019962E+00
3777.3999       4.16914368E+00
3778.8000       4.18260956E+00
3780.2000       4.20557785E+00
3781.6001       4.20139408E+00
3783.0000       4.19886494E+00
3784.3999       4.20717144E+00
3785.8000       4.19737053E+00
3787.2000       4.16077709E+00
3788.6001       4.13613510E+00
3790.0000       4.12304783E+00
3791.3999       4.11143398E+00
3792.8000       4.10723114E+00
3794.2000       4.10970116E+00
3795.6001       4.11677265E+00
3797.0000       4.12233067E+00
3798.3999       4.11462116E+00
3799.8000       4.10868549E+00
3801.2000       4.12292862E+00
3802.6001       4.14934254E+00
3804.0000       4.16105556E+00
3805.3999       4.15286827E+00
3806.8000       4.14268970E+00
3808.2000       4.14039803E+00
3809.6001       4.14093590E+00
3811.0000       4.14304733E+00
3812.3999       4.14320755E+00
3813.8000       4.12786865E+00
3815.2000       4.10065746E+00
3816.6001       4.08298779E+00
3818.0000       4.08097649E+00
3819.3999       4.07788849E+00
3820.8000       4.06932259E+00
3822.2000       4.06320763E+00
3823.6001       4.06249046E+00
3825.0000       4.07189274E+00
3826.3999       4.07647419E+00
3827.8000       4.07117558E+00
3829.2000       4.06788826E+00
3830.6001       4.06400394E+00
3832.0000       4.05099583E+00
3833.3999       4.04145432E+00
3834.8000       4.05296803E+00
3836.2000       4.07033825E+00
3837.6001       4.08177280E+00
3839.0000       4.06595612E+00
3840.3999       4.03798771E+00
3841.8000       4.04557800E+00
3843.2000       4.07679272E+00
3844.6001       4.09780884E+00
3846.0000       4.08952236E+00
3847.3999       4.08553791E+00
3848.8000       4.09842587E+00
3850.2000       4.09388447E+00
3851.6001       4.09400368E+00
3853.0000       4.09934235E+00
3854.3999       4.10243034E+00
3855.8000       4.10585690E+00
3857.2000       4.10356617E+00
3858.6001       4.08840656E+00
3860.0000       4.07862568E+00
3861.3999       4.08968163E+00
3862.8000       4.10021877E+00
3864.2000       4.10613537E+00
3865.6001       4.09848595E+00
3867.0000       4.08766937E+00
3868.3999       4.08733082E+00
3869.8000       4.08350563E+00
3871.2000       4.08115578E+00
3872.6001       4.08314705E+00
3874.0000       4.09211159E+00
3875.3999       4.10382462E+00
3876.8000       4.10318756E+00
3878.2000       4.09219170E+00
3879.6001       4.08217144E+00
3881.0000       4.08502007E+00
3882.3999       4.10254955E+00
3883.8000       4.11497974E+00
3885.2000       4.11993980E+00
3886.6001       4.11782837E+00
3888.0000       4.12099648E+00
3889.3999       4.14382458E+00
3890.8000       4.17310715E+00
3892.2000       4.20597649E+00
3893.6001       4.22330666E+00
3895.0000       4.20617485E+00
3896.3999       4.19611549E+00
3897.8000       4.19089603E+00
3899.2000       4.18509960E+00
3900.6001       4.18195248E+00
3902.0000       4.19051838E+00
3903.3999       4.18703175E+00
3904.8000       4.18336678E+00
3906.2000       4.17946243E+00
3907.6001       4.17282867E+00
3909.0000       4.18988037E+00
3910.3999       4.19671345E+00
3911.8000       4.20239067E+00
3913.2000       4.21374512E+00
3914.6001       4.22908401E+00
3916.0000       4.22011948E+00
3917.3999       4.19280910E+00
3918.8000       4.16476059E+00
3920.2000       4.14356613E+00
3921.6001       4.13061714E+00
3923.0000       4.13340664E+00
3924.3999       4.13936234E+00
3925.8000       4.13462162E+00
3927.2000       4.11061764E+00
3928.6001       4.08482075E+00
3930.0000       4.06661320E+00
3931.3999       4.05326653E+00
3932.8000       4.04800797E+00
3934.2000       4.04533863E+00
3935.6001       4.05928326E+00
3937.0000       4.07898426E+00
3938.3999       4.09559727E+00
3939.8000       4.10320759E+00
3941.2000       4.11314774E+00
3942.6001       4.12621498E+00
3944.0000       4.13918304E+00
3945.3999       4.14667320E+00
3946.8000       4.16013908E+00
3948.2000       4.18103600E+00
3949.6001       4.19137478E+00
3951.0000       4.19637489E+00
3952.3999       4.19525909E+00
3953.8000       4.20099640E+00
3955.2000       4.20278931E+00
3956.6001       4.20039845E+00
3958.0000       4.20278931E+00
3959.3999       4.19549847E+00
3960.8000       4.16814709E+00
3962.2000       4.13792801E+00
3963.6001       4.10854626E+00
3965.0000       4.09185219E+00
3966.3999       4.07926273E+00
3967.8000       4.06627464E+00
3969.2000       4.06354618E+00
3970.6001       4.07731056E+00
3972.0000       4.09673309E+00
3973.3999       4.12087631E+00
3974.8000       4.15352631E+00
3976.2000       4.19376469E+00
3977.6001       4.20976067E+00
3979.0000       4.22330666E+00
3980.3999       4.24003983E+00
3981.8000       4.25876522E+00
3983.2000       4.26673317E+00
3984.6001       4.27410316E+00
3986.0000       4.29422283E+00
3987.3999       4.31454182E+00
3988.8000       4.31912327E+00
3990.2000       4.31274891E+00
3991.6001       4.31613541E+00
3993.0000       4.31613541E+00
3994.3999       4.30936241E+00
3995.8000       4.31533909E+00
3997.2000       4.32051754E+00
3998.6001       4.33246994E+00
4000.0000       4.35398388E+00
4001.3999       4.36035824E+00
4002.8000       4.35378456E+00
4004.2000       4.32848644E+00
4005.6001       4.30617523E+00
4007.0000       4.30936241E+00
4008.3999       4.33745003E+00
4009.8000       4.34023857E+00
4011.2000       4.33864498E+00
4012.6001       4.35657406E+00
4014.0000       4.38585663E+00
4015.3999       4.39501953E+00
4016.8000       4.38924313E+00
4018.2000       4.37788868E+00
4019.6001       4.37310791E+00
4021.0000       4.35657406E+00
4022.3999       4.35039806E+00
4023.8000       4.35856533E+00
4025.2000       4.36374474E+00
4026.6001       4.35577679E+00
4028.0000       4.34920311E+00
4029.3999       4.33187294E+00
4030.8000       4.30318737E+00
4032.2000       4.27848625E+00
4033.6001       4.27250957E+00
4035.0000       4.29282856E+00
4036.3999       4.33346653E+00
4037.8000       4.37191200E+00
4039.2000       4.36872482E+00
4040.6001       4.35059738E+00
4042.0000       4.33107567E+00
4043.3999       4.29521942E+00
4044.8000       4.25776863E+00
4046.2000       4.25517941E+00
4047.6001       4.28804779E+00
4049.0000       4.34083652E+00
4050.3999       4.38685226E+00
4051.8000       4.39382458E+00
4053.2000       4.36912346E+00
4054.6001       4.33804798E+00
4056.0000       4.31095600E+00
4057.3999       4.29621506E+00
4058.8000       4.29980087E+00
4060.2000       4.31394386E+00
4061.6001       4.30139446E+00
4063.0000       4.27270889E+00
4064.3999       4.27091599E+00
4065.8000       4.28924274E+00
4067.2000       4.31752968E+00
4068.6001       4.32748985E+00
4070.0000       4.31155396E+00
4071.3999       4.30278873E+00
4072.8000       4.31055737E+00
4074.2000       4.31992054E+00
4075.6001       4.30318737E+00
4077.0000       4.28067684E+00
4078.3999       4.28685284E+00
4079.8000       4.32310772E+00
4081.2000       4.35657406E+00
4082.6001       4.36972141E+00
4084.0000       4.37808800E+00
4085.3999       4.38844585E+00
4086.8000       4.40856552E+00
4088.2000       4.42729092E+00
4089.6001       4.43247032E+00
4091.0000       4.41533852E+00
4092.3999       4.39083672E+00
4093.8000       4.37450218E+00
4095.2000       4.35657406E+00
4096.6001       4.34302807E+00
4098.0000       4.33486080E+00
4099.3999       4.32848644E+00
4100.7998       4.32788849E+00
4102.2002       4.33605576E+00
4103.6001       4.35398388E+00
4105.0000       4.36792850E+00
4106.3999       4.37370491E+00
4107.7998       4.37131500E+00
4109.2002       4.37071705E+00
4110.6001       4.36772919E+00
4112.0000       4.36055756E+00
4113.3999       4.36553764E+00
4114.7998       4.37370491E+00
4116.2002       4.36733055E+00
4117.6001       4.34581661E+00
4119.0000       4.33227062E+00
4120.3999       4.33506012E+00
4121.7998       4.34243011E+00
4123.2002       4.34482098E+00
4124.6001       4.34302807E+00
4126.0000       4.34183311E+00
4127.3999       4.33944225E+00
4128.7998       4.32470131E+00
4130.2002       4.31035900E+00
4131.6001       4.29023933E+00
4133.0000       4.27509975E+00
4134.3999       4.28486061E+00
4135.7998       4.31135464E+00
4137.2002       4.32709122E+00
4138.6001       4.33227062E+00
4140.0000       4.32908344E+00
4141.3999       4.30139446E+00
4142.7998       4.26414299E+00
4144.2002       4.24541855E+00
4145.6001       4.27111530E+00
4147.0000       4.28744984E+00
4148.3999       4.28446198E+00
4149.7998       4.27111530E+00
4151.2002       4.26593590E+00
4152.6001       4.27330685E+00
4154.0000       4.27490044E+00
4155.3999       4.27191257E+00
4156.7998       4.27888489E+00
4158.2002       4.30039883E+00
4159.6001       4.31494045E+00
4161.0000       4.31972122E+00
4162.3999       4.31972122E+00
4163.7998       4.31792831E+00
4165.2002       4.30976105E+00
4166.6001       4.30418301E+00
4168.0000       4.31454182E+00
4169.3999       4.32111549E+00
4170.7998       4.30239010E+00
4172.2002       4.27908325E+00
4173.6001       4.26294804E+00
4175.0000       4.26772881E+00
4176.3999       4.26772881E+00
4177.7998       4.26553822E+00
4179.2002       4.27091599E+00
4180.6001       4.27669334E+00
4182.0000       4.29382515E+00
4183.3999       4.31414318E+00
4184.7998       4.32988071E+00
4186.2002       4.33107567E+00
4187.6001       4.32171345E+00
4189.0000       4.31613541E+00
4190.3999       4.31673336E+00
4191.7998       4.31972122E+00
4193.2002       4.32908344E+00
4194.6001       4.31952190E+00
4196.0000       4.29023933E+00
4197.3999       4.26613522E+00
4198.7998       4.27310753E+00
4200.2002       4.28545856E+00
4201.6001       4.29223061E+00
4203.0000       4.30139446E+00
4204.3999       4.31792831E+00
4205.7998       4.34063721E+00
4207.2002       4.35856533E+00
4208.6001       4.37191200E+00
4210.0000       4.35577679E+00
4211.3999       4.34023857E+00
4212.7998       4.32908344E+00
4214.2002       4.32031918E+00
4215.6001       4.32290840E+00
4217.0000       4.36135483E+00
4218.3999       4.40458202E+00
4219.7998       4.43585682E+00
4221.2002       4.44063759E+00
4222.6001       4.39442253E+00
4224.0000       4.33087635E+00
4225.3999       4.25936222E+00
4226.7998       4.22669315E+00
4228.2002       4.26035881E+00
4229.6001       4.31414318E+00
4231.0000       4.36394405E+00
4232.3999       4.38306808E+00
4233.7998       4.36394405E+00
4235.2002       4.35597610E+00
4236.6001       4.36035824E+00
4238.0000       4.37250996E+00
4239.3999       4.39681244E+00
4240.7998       4.41832638E+00
4242.2002       4.44083691E+00
4243.6001       4.46932316E+00
4245.0000       4.47410393E+00
4246.3999       4.45896435E+00
4247.7998       4.43426323E+00
4249.2002       4.40856552E+00
4250.6001       4.37310791E+00
4252.0000       4.36593628E+00
4253.3999       4.37091637E+00
4254.7998       4.37031841E+00
4256.2002       4.38227081E+00
4257.6001       4.38426304E+00
4259.0000       4.37131500E+00
4260.3999       4.35557747E+00
4261.7998       4.36972141E+00
4263.2002       4.42729092E+00
4264.6001       4.47231102E+00
4266.0000       4.48147392E+00
4267.3999       4.46832657E+00
4268.7998       4.43286896E+00
4270.2002       4.37729073E+00
4271.6001       4.32350636E+00
4273.0000       4.29203224E+00
4274.3999       4.29760933E+00
4275.7998       4.33665371E+00
4277.2002       4.38605595E+00
4278.6001       4.42848587E+00
4280.0000       4.42330647E+00
4281.3999       4.40856552E+00
4282.7998       4.40836620E+00
4284.2002       4.41195202E+00
4285.6001       4.41394424E+00
4287.0000       4.40318680E+00
4288.3999       4.38067722E+00
4289.7998       4.35717106E+00
4291.2002       4.34900379E+00
4292.6001       4.36733055E+00
4294.0000       4.38426304E+00
4295.3999       4.38187218E+00
4296.7998       4.36852551E+00
4298.2002       4.34262943E+00
4299.6001       4.31334686E+00
4301.0000       4.29402351E+00
4302.3999       4.29960155E+00
4303.7998       4.30358601E+00
4305.2002       4.28386497E+00
4306.6001       4.25717163E+00
4308.0000       4.23725128E+00
4309.3999       4.24521923E+00
4310.7998       4.28067684E+00
4312.2002       4.32589626E+00
4313.6001       4.37888432E+00
4315.0000       4.44860554E+00
4316.3999       4.51314735E+00
4317.7998       4.54760933E+00
4319.2002       4.55796814E+00
4320.6001       4.54063797E+00
4322.0000       4.49641418E+00
4323.3999       4.43486023E+00
4324.7998       4.37330723E+00
4326.2002       4.34920311E+00
4327.6001       4.40697193E+00
4329.0000       4.48326683E+00
4330.3999       4.51513958E+00
4331.7998       4.53585625E+00
4333.2002       4.55816746E+00
4334.6001       4.57509995E+00
4336.0000       4.55856609E+00
4337.3999       4.50617504E+00
4338.7998       4.45119476E+00
4340.2002       4.43227100E+00
4341.6001       4.45677280E+00
4343.0000       4.49203205E+00
4344.3999       4.52151394E+00
4345.7998       4.54920292E+00
4347.2002       4.56713104E+00
4348.6001       4.56892395E+00
4350.0000       4.56095600E+00
4351.3999       4.52211189E+00
4352.7998       4.48087692E+00
4354.2002       4.48904419E+00
4355.6001       4.52330685E+00
4357.0000       4.55756950E+00
4358.3999       4.55239010E+00
4359.7998       4.54163361E+00
4361.2002       4.57031918E+00
4362.6001       4.60697174E+00
4364.0000       4.63804817E+00
4365.3999       4.64203167E+00
4366.7998       4.62390423E+00
4368.2002       4.59223080E+00
4369.6001       4.56573677E+00
4371.0000       4.55836678E+00
4372.3999       4.53844643E+00
4373.7998       4.49741077E+00
4375.2002       4.46733093E+00
4376.6001       4.48187256E+00
4378.0000       4.52370548E+00
4379.3999       4.52290821E+00
4380.7998       4.49243069E+00
4382.2002       4.42549801E+00
4383.6001       4.34641457E+00
4385.0000       4.34741020E+00
4386.3999       4.38486099E+00
4387.7998       4.42111588E+00
4389.2002       4.43984032E+00
4390.6001       4.46015930E+00
4392.0000       4.47689247E+00
4393.3999       4.48386478E+00
4394.7998       4.50119495E+00
4396.2002       4.54103565E+00
4397.6001       4.55557728E+00
4399.0000       4.53924274E+00
4400.3999       4.51015949E+00
4401.7998       4.49003983E+00
4403.2002       4.46653366E+00
4404.6001       4.42270947E+00
4406.0000       4.40438271E+00
4407.3999       4.42709160E+00
4408.7998       4.45916367E+00
4410.2002       4.50617504E+00
4411.6001       4.54422283E+00
4413.0000       4.55119514E+00
4414.3999       4.52430248E+00
4415.7998       4.48665333E+00
4417.2002       4.50996017E+00
4418.6001       4.54820728E+00
4420.0000       4.57111549E+00
4421.3999       4.54382515E+00
4422.7998       4.52470112E+00
4424.2002       4.53366566E+00
4425.6001       4.54960155E+00
4427.0000       4.54980087E+00
4428.3999       4.55079651E+00
4429.7998       4.54980087E+00
4431.2002       4.54063797E+00
4432.6001       4.53227043E+00
4434.0000       4.51812744E+00
4435.3999       4.50856590E+00
4436.7998       4.52450180E+00
4438.2002       4.55956173E+00
4439.6001       4.58585644E+00
4441.0000       4.56573677E+00
4442.3999       4.54621506E+00
4443.7998       4.56254959E+00
4445.2002       4.60298824E+00
4446.6001       4.63605595E+00
4448.0000       4.63087654E+00
4449.3999       4.62031841E+00
4450.7998       4.61852551E+00
4452.2002       4.60697174E+00
4453.6001       4.58047771E+00
4455.0000       4.54402351E+00
4456.3999       4.52509975E+00
4457.7998       4.51195240E+00
4459.2002       4.49940205E+00
4460.6001       4.48306751E+00
4462.0000       4.49302769E+00
4463.3999       4.52250957E+00
4464.7998       4.55996037E+00
4466.2002       4.58944225E+00
4467.6001       4.59243011E+00
4469.0000       4.58406353E+00
4470.3999       4.58087635E+00
4471.7998       4.59641457E+00
4473.2002       4.60756969E+00
4474.6001       4.63087654E+00
4476.0000       4.66394424E+00
4477.3999       4.67689228E+00
4478.7998       4.65557766E+00
4480.2002       4.60597610E+00
4481.6001       4.60039806E+00
4483.0000       4.63406372E+00
4484.3999       4.68107605E+00
4485.7998       4.70976067E+00
4487.2002       4.69262981E+00
4488.6001       4.65537834E+00
4490.0000       4.63745022E+00
4491.3999       4.62250996E+00
4492.7998       4.62948227E+00
4494.2002       4.61733055E+00
4495.6001       4.61852551E+00
4497.0000       4.64203167E+00
4498.3999       4.66693211E+00
4499.7998       4.67111588E+00
4501.2002       4.68804741E+00
4502.6001       4.73067760E+00
4504.0000       4.77111530E+00
4505.3999       4.76155376E+00
4506.7998       4.73466110E+00
4508.2002       4.75258923E+00
4509.6001       4.76115513E+00
4511.0000       4.73944187E+00
4512.3999       4.70976067E+00
4513.7998       4.69501972E+00
4515.2002       4.69541836E+00
4516.6001       4.68824673E+00
4518.0000       4.68665314E+00
4519.3999       4.71155357E+00
4520.7998       4.71593666E+00
4522.2002       4.69900417E+00
4523.6001       4.66872501E+00
4525.0000       4.63007927E+00
4526.3999       4.56892395E+00
4527.7998       4.55378532E+00
4529.2002       4.57171345E+00
4530.6001       4.59402370E+00
4532.0000       4.62031841E+00
4533.3999       4.61374474E+00
4534.7998       4.60637474E+00
4536.2002       4.65398407E+00
4537.6001       4.69521904E+00
4539.0000       4.67649364E+00
4540.3999       4.63904381E+00
4541.7998       4.66015911E+00
4543.2002       4.68406391E+00
4544.6001       4.67450237E+00
4546.0000       4.65995979E+00
4547.3999       4.64760971E+00
4548.7998       4.63007927E+00
4550.2002       4.64262962E+00
4551.6001       4.66254997E+00
4553.0000       4.66035843E+00
4554.3999       4.65597630E+00
4555.7998       4.67768955E+00
4557.2002       4.72370529E+00
4558.6001       4.75398445E+00
4560.0000       4.75478077E+00
4561.3999       4.72191238E+00
4562.7998       4.68964195E+00
4564.2002       4.67828655E+00
4565.6001       4.68545818E+00
4567.0000       4.71553802E+00
4568.3999       4.74442196E+00
4569.7998       4.74422264E+00
4571.2002       4.72629452E+00
4572.6001       4.72211170E+00
4574.0000       4.73346615E+00
4575.3999       4.74721146E+00
4576.7998       4.75099564E+00
4578.2002       4.72549820E+00
4579.6001       4.69501972E+00
4581.0000       4.68366528E+00
4582.3999       4.67649364E+00
4583.7998       4.67689228E+00
4585.2002       4.68665314E+00
4586.6001       4.70438290E+00
4588.0000       4.73167324E+00
4589.3999       4.74960136E+00
4590.7998       4.73207188E+00
4592.2002       4.69362545E+00
4593.6001       4.66474152E+00
4595.0000       4.64820671E+00
4596.3999       4.64641476E+00
4597.7998       4.66135502E+00
4599.2002       4.68207169E+00
4600.6001       4.69083691E+00
4602.0000       4.68107605E+00
4603.3999       4.67529869E+00
4604.7998       4.69521904E+00
4606.2002       4.73446178E+00
4607.6001       4.78246975E+00
4609.0000       4.81832695E+00
4610.3999       4.81055737E+00
4611.7998       4.77828693E+00
4613.2002       4.75378513E+00
4614.6001       4.76693249E+00
4616.0000       4.79581642E+00
4617.3999       4.80318737E+00
4618.7998       4.79123497E+00
4620.2002       4.79561806E+00
4621.6001       4.79621506E+00
4623.0000       4.80418301E+00
4624.3999       4.81434250E+00
4625.7998       4.81055737E+00
4627.2002       4.79860592E+00
4628.6001       4.78665352E+00
4630.0000       4.78027916E+00
4631.3999       4.77908325E+00
4632.7998       4.76872540E+00
4634.2002       4.75876522E+00
4635.6001       4.73565769E+00
4637.0000       4.71912384E+00
4638.3999       4.71215153E+00
4639.7998       4.72131443E+00
4641.2002       4.72689247E+00
4642.6001       4.71753025E+00
4644.0000       4.69920349E+00
4645.3999       4.66474152E+00
4646.7998       4.63446236E+00
4648.2002       4.64800835E+00
4649.6001       4.68386459E+00
4651.0000       4.72788811E+00
4652.3999       4.77250957E+00
4653.7998       4.75617504E+00
4655.2002       4.74322701E+00
4656.6001       4.74621487E+00
4658.0000       4.78844643E+00
4659.3999       4.84581661E+00
4660.7998       4.83585644E+00
4662.2002       4.79223156E+00
4663.6001       4.75756931E+00
4665.0000       4.71414375E+00
4666.3999       4.67111588E+00
4667.7998       4.63227081E+00
4669.2002       4.66015911E+00
4670.6001       4.70796776E+00
4672.0000       4.74302769E+00
4673.3999       4.75239086E+00
4674.7998       4.76354599E+00
4676.2002       4.78585625E+00
4677.6001       4.77430248E+00
4679.0000       4.74402428E+00
4680.3999       4.71015930E+00
4681.7998       4.70757008E+00
4683.2002       4.74183273E+00
4684.6001       4.75418282E+00
4686.0000       4.74721146E+00
4687.3999       4.74780846E+00
4688.7998       4.75617504E+00
4690.2002       4.76733017E+00
4691.6001       4.75258923E+00
4693.0000       4.72808743E+00
4694.3999       4.73904419E+00
4695.7998       4.74581718E+00
4697.2002       4.74263000E+00
4698.6001       4.72251034E+00
4700.0000       4.72270966E+00
4701.3999       4.71753025E+00
4702.7998       4.69920349E+00
4704.2002       4.70199203E+00
4705.6001       4.73167324E+00
4707.0000       4.73984051E+00
4708.3999       4.73007965E+00
4709.7998       4.73964119E+00
4711.2002       4.75199223E+00
4712.6001       4.76195240E+00
4714.0000       4.74521923E+00
4715.3999       4.75099564E+00
4716.7998       4.79163361E+00
4718.2002       4.82071686E+00
4719.6001       4.83944225E+00
4721.0000       4.85657406E+00
4722.3999       4.82410336E+00
4723.7998       4.80298805E+00
4725.2002       4.78486061E+00
4726.6001       4.76215172E+00
4728.0000       4.72768974E+00
4729.3999       4.69581699E+00
4730.7998       4.71872520E+00
4732.2002       4.76992035E+00
4733.6001       4.80119514E+00
4735.0000       4.80159378E+00
4736.3999       4.79502010E+00
4737.7998       4.80896378E+00
4739.2002       4.83207130E+00
4740.6001       4.82450199E+00
4742.0000       4.80996037E+00
4743.3999       4.81434250E+00
4744.7998       4.82091618E+00
4746.2002       4.80338669E+00
4747.6001       4.81414318E+00
4749.0000       4.83127499E+00
4750.3999       4.82250977E+00
4751.7998       4.81693268E+00
4753.2002       4.81394386E+00
4754.6001       4.79860592E+00
4756.0000       4.77748966E+00
4757.3999       4.78007984E+00
4758.7998       4.80258942E+00
4760.2002       4.82729053E+00
4761.6001       4.81095600E+00
4763.0000       4.78884506E+00
4764.3999       4.77111530E+00
4765.7998       4.76394463E+00
4767.2002       4.76374531E+00
4768.6001       4.78505993E+00
4770.0000       4.80159378E+00
4771.3999       4.80099583E+00
4772.7998       4.80776882E+00
4774.2002       4.81414318E+00
4775.6001       4.85318756E+00
4777.0000       4.88127518E+00
4778.3999       4.88266945E+00
4779.7998       4.87689209E+00
4781.2002       4.87609577E+00
4782.6001       4.83844662E+00
4784.0000       4.82071686E+00
4785.3999       4.81374550E+00
4786.7998       4.80099583E+00
4788.2002       4.79262924E+00
4789.6001       4.79382515E+00
4791.0000       4.80816746E+00
4792.3999       4.83884430E+00
4793.7998       4.86235046E+00
4795.2002       4.87470150E+00
4796.6001       4.87788868E+00
4798.0000       4.87071705E+00
4799.3999       4.86235046E+00
4800.7998       4.87071705E+00
4802.2002       4.88505936E+00
4803.6001       4.88745022E+00
4805.0000       4.87490082E+00
4806.3999       4.84820747E+00
4807.7998       4.84083652E+00
4809.2002       4.85119534E+00
4810.6001       4.85936260E+00
4812.0000       4.85418320E+00
4813.3999       4.85278893E+00
4814.7998       4.85697174E+00
4816.2002       4.86553764E+00
4817.6001       4.87250996E+00
4819.0000       4.89063740E+00
4820.3999       4.88386440E+00
4821.7998       4.84462166E+00
4823.2002       4.82748985E+00
4824.6001       4.84342670E+00
4826.0000       4.87729073E+00
4827.3999       4.86872482E+00
4828.7998       4.83924294E+00
4830.2002       4.83167362E+00
4831.6001       4.84243011E+00
4833.0000       4.83665371E+00
4834.3999       4.84083652E+00
4835.7998       4.84183311E+00
4837.2002       4.83864594E+00
4838.6001       4.83446217E+00
4840.0000       4.81354618E+00
4841.3999       4.80896378E+00
4842.7998       4.83107567E+00
4844.2002       4.86274910E+00
4845.6001       4.88286877E+00
4847.0000       4.88446236E+00
4848.3999       4.85916328E+00
4849.7998       4.84004021E+00
4851.2002       4.86713123E+00
4852.6001       4.86394405E+00
4854.0000       4.81533813E+00
4855.3999       4.78944206E+00
4856.7998       4.80677319E+00
4858.2002       4.80717087E+00
4859.6001       4.75239086E+00
4861.0000       4.71235085E+00
4862.3999       4.72729111E+00
4863.7998       4.76852608E+00
4865.2002       4.79521942E+00
4866.6001       4.79940224E+00
4868.0000       4.80019951E+00
4869.3999       4.77091599E+00
4870.7998       4.74103546E+00
4872.2002       4.74661350E+00
4873.6001       4.77410316E+00
4875.0000       4.81533813E+00
4876.3999       4.84004021E+00
4877.7998       4.84462166E+00
4879.2002       4.85000038E+00
4880.6001       4.85418320E+00
4882.0000       4.85657406E+00
4883.3999       4.84860516E+00
4884.7998       4.82988071E+00
4886.2002       4.80856609E+00
4887.6001       4.79004002E+00
4889.0000       4.77968121E+00
4890.3999       4.76115513E+00
4891.7998       4.76573753E+00
4893.2002       4.82529926E+00
4894.6001       4.88725090E+00
4896.0000       4.90995979E+00
4897.3999       4.92390442E+00
4898.7998       4.93027878E+00
4900.2002       4.90976143E+00
4901.6001       4.91593647E+00
4903.0000       4.90657425E+00
4904.3999       4.90398407E+00
4905.7998       4.93286896E+00
4907.2002       4.93227100E+00
4908.6001       4.88326740E+00
4910.0000       4.84262943E+00
4911.3999       4.82788849E+00
4912.7998       4.84163380E+00
4914.2002       4.88007927E+00
4915.6001       4.90896416E+00
4917.0000       4.87988091E+00
4918.3999       4.81772900E+00
4919.7998       4.74422264E+00
4921.2002       4.71912384E+00
4922.6001       4.74501991E+00
4924.0000       4.78326702E+00
4925.3999       4.81633472E+00
4926.7998       4.84103584E+00
4928.2002       4.86673355E+00
4929.6001       4.89780903E+00
4931.0000       4.92868519E+00
4932.3999       4.92370510E+00
4933.7998       4.89999962E+00
4935.2002       4.88864517E+00
4936.6001       4.88346577E+00
4938.0000       4.83506012E+00
4939.3999       4.79641438E+00
4940.7998       4.82330704E+00
4942.2002       4.88924313E+00
4943.6001       4.93326664E+00
4945.0000       4.93207169E+00
4946.3999       4.92390442E+00
4947.7998       4.93187237E+00
4949.2002       4.94601631E+00
4950.6001       4.96852589E+00
4952.0000       4.96673298E+00
4953.3999       4.93565750E+00
4954.7998       4.92390442E+00
4956.2002       4.90019894E+00
4957.6001       4.84302807E+00
4959.0000       4.81892395E+00
4960.3999       4.85338688E+00
4961.7998       4.90597630E+00
4963.2002       4.95179272E+00
4964.6001       4.94999981E+00
4966.0000       4.90418339E+00
4967.3999       4.87031841E+00
4968.7998       4.85258961E+00
4970.2002       4.86752987E+00
4971.6001       4.89880466E+00
4973.0000       4.91314697E+00
4974.3999       4.91613579E+00
4975.7998       4.93605614E+00
4977.2002       4.93466091E+00
4978.6001       4.89482117E+00
4980.0000       4.87948227E+00
4981.3999       4.86374474E+00
4982.7998       4.82450199E+00
4984.2002       4.79402351E+00
4985.6001       4.81593609E+00
4987.0000       4.84920311E+00
4988.3999       4.87091637E+00
4989.7998       4.89243031E+00
4991.2002       4.90617561E+00
4992.6001       4.89322662E+00
4994.0000       4.87609577E+00
4995.3999       4.86733055E+00
4996.7998       4.86673355E+00
4998.2002       4.88386440E+00
4999.6001       4.88306808E+00
5001.0000       4.87250996E+00
5002.3999       4.86135483E+00
5003.7998       4.83246994E+00
5005.2002       4.78087616E+00
5006.6001       4.75796795E+00
5008.0000       4.78525925E+00
5009.3999       4.83804798E+00
5010.7998       4.85139465E+00
5012.2002       4.82031918E+00
5013.6001       4.77569771E+00
5015.0000       4.73705196E+00
5016.3999       4.73625469E+00
5017.7998       4.76792812E+00
5019.2002       4.79940224E+00
5020.6001       4.81254959E+00
5022.0000       4.80239010E+00
5023.3999       4.78386497E+00
5024.7998       4.78964138E+00
5026.2002       4.81892395E+00
5027.6001       4.84262943E+00
5029.0000       4.84920311E+00
5030.3999       4.85398388E+00
5031.7998       4.88326740E+00
5033.2002       4.90995979E+00
5034.6001       4.91175270E+00
5036.0000       4.88545799E+00
5037.3999       4.86135483E+00
5038.7998       4.84681320E+00
5040.2002       4.78904343E+00
5041.6001       4.73944187E+00
5043.0000       4.76733017E+00
5044.3999       4.83924294E+00
5045.7998       4.89442253E+00
5047.2002       4.92490005E+00
5048.6001       4.90796852E+00
5050.0000       4.84302807E+00
5051.3999       4.81932259E+00
5052.7998       4.83466148E+00
5054.2002       4.87091637E+00
5055.6001       4.89501953E+00
5057.0000       4.90557766E+00
5058.3999       4.93406391E+00
5059.7998       4.95637417E+00
5061.2002       4.97290802E+00
5062.6001       4.95936298E+00
5064.0000       4.92031860E+00
5065.3999       4.88505936E+00
5066.7998       4.86593628E+00
5068.2002       4.86374474E+00
5069.6001       4.87410355E+00
5071.0000       4.87768936E+00
5072.3999       4.85976124E+00
5073.7998       4.85896397E+00
5075.2002       4.85577679E+00
5076.6001       4.85956192E+00
5078.0000       4.86613560E+00
5079.3999       4.83127499E+00
5080.7998       4.78446198E+00
5082.2002       4.77828693E+00
5083.6001       4.79980087E+00
5085.0000       4.81772900E+00
5086.3999       4.83326721E+00
5087.7998       4.86314774E+00
5089.2002       4.89203167E+00
5090.6001       4.89760971E+00
5092.0000       4.89880466E+00
5093.3999       4.91733074E+00
5094.7998       4.93067741E+00
5096.2002       4.90438271E+00
5097.6001       4.86215115E+00
5099.0000       4.83107567E+00
5100.3999       4.81892395E+00
5101.7998       4.85239029E+00
5103.2002       4.87270927E+00
5104.6001       4.85438251E+00
5106.0000       4.84521866E+00
5107.3999       4.84043789E+00
5108.7998       4.82509995E+00
5110.2002       4.82589626E+00
5111.6001       4.84561729E+00
5113.0000       4.87529850E+00
5114.3999       4.88944244E+00
5115.7998       4.88924313E+00
5117.2002       4.90816689E+00
5118.6001       4.93047810E+00
5120.0000       4.92011929E+00
5121.3999       4.86932278E+00
5122.7998       4.83924294E+00
5124.2002       4.79342651E+00
5125.6001       4.78366566E+00
5127.0000       4.80737019E+00
5128.3999       4.80318737E+00
5129.7998       4.79780865E+00
5131.2002       4.83107567E+00
5132.6001       4.86434269E+00
5134.0000       4.88565731E+00
5135.3999       4.88067722E+00
5136.7998       4.85298824E+00
5138.2002       4.82430267E+00
5139.6001       4.79521942E+00
5141.0000       4.79940224E+00
5142.3999       4.81872559E+00
5143.7998       4.80677319E+00
5145.2002       4.80159378E+00
5146.6001       4.80756950E+00
5148.0000       4.80796814E+00
5149.3999       4.81135464E+00
5150.7998       4.82290840E+00
5152.2002       4.79721165E+00
5153.6001       4.78167343E+00
5155.0000       4.81553745E+00
5156.3999       4.85019875E+00
5157.7998       4.86235046E+00
5159.2002       4.86593628E+00
5160.6001       4.86035824E+00
5162.0000       4.84621525E+00
5163.3999       4.81892395E+00
5164.7998       4.75139427E+00
5166.2002       4.65637493E+00
5167.6001       4.59621525E+00
5169.0000       4.60537815E+00
5170.3999       4.63067722E+00
5171.7998       4.61792850E+00
5173.2002       4.61115551E+00
5174.6001       4.67270947E+00
5176.0000       4.76573753E+00
5177.3999       4.82310772E+00
5178.7998       4.84123516E+00
5180.2002       4.81553745E+00
5181.6001       4.73625469E+00
5183.0000       4.64900398E+00
5184.3999       4.62709141E+00
5185.7998       4.69023895E+00
5187.2002       4.79621506E+00
5188.6001       4.85278893E+00
5190.0000       4.84960175E+00
5191.3999       4.82748985E+00
5192.7998       4.80796814E+00
5194.2002       4.80976105E+00
5195.6001       4.84760952E+00
5197.0000       4.87071705E+00
5198.3999       4.88705158E+00
5199.7998       4.89422321E+00
5201.2002       4.89382458E+00
5202.6001       4.86254978E+00
5204.0000       4.81135464E+00
5205.3999       4.75378513E+00
5206.7998       4.71533871E+00
5208.2002       4.71673298E+00
5209.6001       4.75179291E+00
5211.0000       4.80239010E+00
5212.3999       4.87250996E+00
5213.7998       4.90438271E+00
5215.2002       4.88067722E+00
5216.6001       4.87689209E+00
5218.0000       4.90199184E+00
5219.3999       4.91354561E+00
5220.7998       4.91733074E+00
5222.2002       4.90219116E+00
5223.6001       4.85856533E+00
5225.0000       4.79362583E+00
5226.3999       4.75418282E+00
5227.7998       4.78187275E+00
5229.2002       4.83685303E+00
5230.6001       4.88187218E+00
5232.0000       4.89442253E+00
5233.3999       4.87828732E+00
5234.7998       4.87609577E+00
5236.2002       4.90378475E+00
5237.6001       4.94900417E+00
5239.0000       4.97470093E+00
5240.3999       4.97649384E+00
5241.7998       4.97808743E+00
5243.2002       4.98665333E+00
5244.6001       4.98007965E+00
5246.0000       4.93187237E+00
5247.3999       4.88505936E+00
5248.7998       4.85677338E+00
5250.2002       4.83764935E+00
5251.6001       4.84462166E+00
5253.0000       4.86414337E+00
5254.3999       4.87350559E+00
5255.7998       4.88545799E+00
5257.2002       4.92609596E+00
5258.6001       4.96135426E+00
5260.0000       4.95278931E+00
5261.3999       4.88685226E+00
5262.7998       4.79980087E+00
5264.2002       4.73446178E+00
5265.6001       4.69462109E+00
5267.0000       4.68804741E+00
5268.3999       4.69322681E+00
5269.7998       4.67788887E+00
5271.2002       4.71055794E+00
5272.6001       4.77151394E+00
5274.0000       4.81972122E+00
5275.3999       4.85298824E+00
5276.7998       4.89999962E+00
5278.2002       4.93984032E+00
5279.6001       4.93924332E+00
5281.0000       4.90956211E+00
5282.3999       4.88665295E+00
5283.7998       4.88964176E+00
5285.2002       4.92868519E+00
5286.6001       4.96992016E+00
5288.0000       4.99721146E+00
5289.3999       5.01235008E+00
5290.7998       5.01633453E+00
5292.2002       5.00139427E+00
5293.6001       4.97689247E+00
5295.0000       4.94860554E+00
5296.3999       4.90577698E+00
5297.7998       4.86474133E+00
5299.2002       4.85717106E+00
5300.6001       4.88745022E+00
5302.0000       4.93127441E+00
5303.3999       4.97470093E+00
5304.7998       5.00239086E+00
5306.2002       5.01494026E+00
5307.6001       5.02470112E+00
5309.0000       5.02051830E+00
5310.3999       5.01892471E+00
5311.7998       5.02231026E+00
5313.2002       5.01633453E+00
5314.6001       5.01633453E+00
5316.0000       5.02310753E+00
5317.3999       5.00498009E+00
5318.7998       4.97669315E+00
5320.2002       4.96992016E+00
5321.6001       4.97231102E+00
5323.0000       4.94601631E+00
5324.3999       4.91474152E+00
5325.7998       4.87091637E+00
5327.2002       4.81215096E+00
5328.6001       4.77231026E+00
5330.0000       4.82669353E+00
5331.3999       4.89621544E+00
5332.7998       4.92709160E+00
5334.2002       4.95776939E+00
5335.6001       4.98884487E+00
5337.0000       4.97968102E+00
5338.3999       4.94721127E+00
5339.7998       4.92848587E+00
5341.2002       4.93047810E+00
5342.6001       4.94701195E+00
5344.0000       4.96414375E+00
5345.3999       4.95657349E+00
5346.7998       4.94681263E+00
5348.2002       4.94223118E+00
5349.6001       4.95318699E+00
5351.0000       4.97191238E+00
5352.3999       4.99641418E+00
5353.7998       5.02768898E+00
5355.2002       5.05179310E+00
5356.6001       5.05458164E+00
5358.0000       5.04302788E+00
5359.3999       5.04422283E+00
5360.7998       5.05179310E+00
5362.2002       5.03944206E+00
5363.6001       5.00996017E+00
5365.0000       4.96792793E+00
5366.3999       4.94003963E+00
5367.7998       4.93227100E+00
5369.2002       4.90776920E+00
5370.6001       4.87689209E+00
5372.0000       4.88525867E+00
5373.3999       4.92410374E+00
5374.7998       4.96613503E+00
5376.2002       4.99083710E+00
5377.6001       4.99561787E+00
5379.0000       5.00219154E+00
5380.3999       5.00796795E+00
5381.7998       5.01115513E+00
5383.2002       4.99840641E+00
5384.6001       4.98127460E+00
5386.0000       4.98107529E+00
5387.3999       4.97450161E+00
5388.7998       4.95119476E+00
5390.2002       4.93207169E+00
5391.6001       4.92131519E+00
5393.0000       4.90756989E+00
5394.3999       4.88764954E+00
5395.7998       4.86035824E+00
5397.2002       4.83545780E+00
5398.6001       4.86195183E+00
5400.0000       4.90597630E+00
5401.3999       4.91135502E+00
5402.7998       4.89322662E+00
5404.2002       4.83764935E+00
5405.6001       4.80079651E+00
5407.0000       4.80876541E+00
5408.3999       4.84243011E+00
5409.7998       4.87549782E+00
5411.2002       4.91374493E+00
5412.6001       4.96553802E+00
5414.0000       4.98067760E+00
5415.3999       4.98764992E+00
5416.7998       5.00079727E+00
5418.2002       5.00219154E+00
5419.6001       4.98884487E+00
5421.0000       4.98127460E+00
5422.3999       4.96274948E+00
5423.7998       4.95876503E+00
5425.2002       4.97629452E+00
5426.6001       5.01235008E+00
5428.0000       5.00059795E+00
5429.3999       4.94760990E+00
5430.7998       4.92251015E+00
5432.2002       4.91493988E+00
5433.6001       4.89322662E+00
5435.0000       4.88247013E+00
5436.3999       4.89880466E+00
5437.7998       4.94302750E+00
5439.2002       4.99601555E+00
5440.6001       5.03744984E+00
5442.0000       5.05936241E+00
5443.3999       5.03884506E+00
5444.7998       4.98386478E+00
5446.2002       4.93067741E+00
5447.6001       4.89999962E+00
5449.0000       4.92011929E+00
5450.3999       4.98167324E+00
5451.7998       5.01055813E+00
5453.2002       4.97211170E+00
5454.6001       4.91374493E+00
5456.0000       4.90717125E+00
5457.3999       4.95816708E+00
5458.7998       5.01533890E+00
5460.2002       5.02768898E+00
5461.6001       5.00278854E+00
5463.0000       4.97788811E+00
5464.3999       4.95876503E+00
5465.7998       4.95039845E+00
5467.2002       4.95597649E+00
5468.6001       4.96972084E+00
5470.0000       4.96613503E+00
5471.3999       4.95318699E+00
5472.7998       4.95079708E+00
5474.2002       4.94482040E+00
5475.6001       4.92211151E+00
5477.0000       4.89820671E+00
5478.3999       4.90836620E+00
5479.7998       4.92928314E+00
5481.2002       4.92031860E+00
5482.6001       4.92011929E+00
5484.0000       4.94203186E+00
5485.3999       4.95916367E+00
5486.7998       4.95657349E+00
5488.2002       4.94163322E+00
5489.6001       4.92908382E+00
5491.0000       4.94063759E+00
5492.3999       4.95717144E+00
5493.7998       4.96792793E+00
5495.2002       4.97848606E+00
5496.6001       4.99741077E+00
5498.0000       5.00179291E+00
5499.3999       4.99521923E+00
5500.7998       5.01274872E+00
5502.2002       5.00039864E+00
5503.6001       4.97031879E+00
5505.0000       4.94641399E+00
5506.3999       4.92788887E+00
5507.7998       4.92828655E+00
5509.2002       4.95179272E+00
5510.6001       4.96314716E+00
5512.0000       4.93685246E+00
5513.3999       4.91274929E+00
5514.7998       4.91613579E+00
5516.2002       4.92709160E+00
5517.6001       4.94581699E+00
5519.0000       4.98844624E+00
5520.3999       5.02549839E+00
5521.7998       5.01573753E+00
5523.2002       4.98884487E+00
5524.6001       4.98107529E+00
5526.0000       4.97749043E+00
5527.3999       4.95597649E+00
5528.7998       4.94362545E+00
5530.2002       4.94860554E+00
5531.6001       4.96474075E+00
5533.0000       4.96992016E+00
5534.3999       4.96075726E+00
5535.7998       4.95717144E+00
5537.2002       4.96274948E+00
5538.6001       4.94541836E+00
5540.0000       4.95856571E+00
5541.3999       4.99023914E+00
5542.7998       5.00139427E+00
5544.2002       4.98665333E+00
5545.6001       4.97788811E+00
5547.0000       4.98406410E+00
5548.3999       5.00517941E+00
5549.7998       5.02549839E+00
5551.2002       5.03964138E+00
5552.6001       5.03167343E+00
5554.0000       5.01374531E+00
5555.3999       5.00000000E+00
5556.7998       4.99083710E+00
5558.2002       4.97729111E+00
5559.6001       4.97051811E+00
5561.0000       4.96772957E+00
5562.3999       4.96932316E+00
5563.7998       4.97111511E+00
5565.2002       4.98047829E+00
5566.6001       4.97968102E+00
5568.0000       4.94840622E+00
5569.3999       4.94681263E+00
5570.7998       4.96753025E+00
5572.2002       4.97231102E+00
5573.6001       4.96015930E+00
5575.0000       4.95876503E+00
5576.3999       4.98147392E+00
5577.7998       5.00179291E+00
5579.2002       4.99482059E+00
5580.6001       4.99163342E+00
5582.0000       4.99442196E+00
5583.3999       4.97908401E+00
5584.7998       4.95956230E+00
5586.2002       4.92988014E+00
5587.6001       4.88944244E+00
5589.0000       4.86872482E+00
5590.3999       4.87330723E+00
5591.7998       4.89143467E+00
5593.2002       4.91115570E+00
5594.6001       4.92788887E+00
5596.0000       4.95219135E+00
5597.3999       4.97310734E+00
5598.7998       4.97171307E+00
5600.2002       4.95497990E+00
5601.6001       4.93525887E+00
5603.0000       4.92071724E+00
5604.3999       4.93266964E+00
5605.7998       4.96733093E+00
5607.2002       5.00896454E+00
5608.6001       5.03306770E+00
5610.0000       5.02330685E+00
5611.3999       5.03207207E+00
5612.7998       5.03167343E+00
5614.2002       5.00199223E+00
5615.6001       4.94621468E+00
5617.0000       4.90179253E+00
5618.3999       4.91195202E+00
5619.7998       4.93565750E+00
5621.2002       4.95737076E+00
5622.6001       4.97410393E+00
5624.0000       4.97649384E+00
5625.3999       4.94641399E+00
5626.7998       4.90876484E+00
5628.2002       4.92410374E+00
5629.6001       4.95537853E+00
5631.0000       4.99083710E+00
5632.3999       5.01733017E+00
5633.7998       5.02051830E+00
5635.2002       5.00956154E+00
5636.6001       5.00179291E+00
5638.0000       4.99780846E+00
5639.3999       4.97649384E+00
5640.7998       4.97968102E+00
5642.2002       4.96533871E+00
5643.6001       4.92988014E+00
5645.0000       4.92549801E+00
5646.3999       4.96075726E+00
5647.7998       4.98565769E+00
5649.2002       4.97470093E+00
5650.6001       4.96035862E+00
5652.0000       4.97071743E+00
5653.3999       4.98306751E+00
5654.7998       4.97270966E+00
5656.2002       4.95995998E+00
5657.6001       4.95378494E+00
5659.0000       4.92908382E+00
5660.3999       4.90278912E+00
5661.7998       4.90796852E+00
5663.2002       4.92251015E+00
5664.6001       4.92788887E+00
5666.0000       4.93366528E+00
5667.3999       4.95119476E+00
5668.7998       4.94940281E+00
5670.2002       4.93525887E+00
5671.6001       4.93984032E+00
5673.0000       4.98426247E+00
5674.3999       5.02589607E+00
5675.7998       5.02828693E+00
5677.2002       5.02111530E+00
5678.6001       5.02768898E+00
5680.0000       5.02609539E+00
5681.3999       5.00717163E+00
5682.7998       4.97908401E+00
5684.2002       4.96613503E+00
5685.6001       4.96294785E+00
5687.0000       4.95239067E+00
5688.3999       4.94561768E+00
5689.7998       4.96494007E+00
5691.2002       4.99063778E+00
5692.6001       5.01035881E+00
5694.0000       5.02131462E+00
5695.3999       5.02151394E+00
5696.7998       5.01613522E+00
5698.2002       5.00398445E+00
5699.6001       4.98645401E+00
5701.0000       4.95995998E+00
5702.3999       4.93665314E+00
5703.7998       4.93565750E+00
5705.2002       4.95059776E+00
5706.6001       4.95079708E+00
5708.0000       4.91772938E+00
5709.3999       4.87928295E+00
5710.7998       4.87211132E+00
5712.2002       4.88466167E+00
5713.6001       4.90936279E+00
5715.0000       4.94223118E+00
5716.3999       4.97031879E+00
5717.7998       4.99123478E+00
5719.2002       4.99482059E+00
5720.6001       4.99083710E+00
5722.0000       5.01613522E+00
5723.3999       5.04681301E+00
5724.7998       5.06155396E+00
5726.2002       5.06713104E+00
5727.6001       5.03984070E+00
5729.0000       5.01294804E+00
5730.3999       5.01772881E+00
5731.7998       5.01454163E+00
5733.2002       5.00019932E+00
5734.6001       5.00239086E+00
5736.0000       5.01772881E+00
5737.3999       5.01952171E+00
5738.7998       5.02231026E+00
5740.2002       5.02370548E+00
5741.6001       5.01513958E+00
5743.0000       4.99960136E+00
5744.3999       4.99263000E+00
5745.7998       4.99920368E+00
5747.2002       4.99282837E+00
5748.6001       4.98107529E+00
5750.0000       4.99263000E+00
5751.3999       5.00816727E+00
5752.7998       4.99183273E+00
5754.2002       4.96434307E+00
5755.6001       4.95637417E+00
5757.0000       4.96713161E+00
5758.3999       4.99123478E+00
5759.7998       4.99342632E+00
5761.2002       4.96593666E+00
5762.6001       4.95657349E+00
5764.0000       4.95657349E+00
5765.3999       4.99263000E+00
5766.7998       5.02111530E+00
5768.2002       5.02689266E+00
5769.6001       5.04063797E+00
5771.0000       5.03904343E+00
5772.3999       5.01812744E+00
5773.7998       5.01015949E+00
5775.2002       5.00996017E+00
5776.6001       5.00796795E+00
5778.0000       5.00677299E+00
5779.3999       4.97888470E+00
5780.7998       4.92071724E+00
5782.2002       4.87729073E+00
5783.6001       4.87709141E+00
5785.0000       4.87211132E+00
5786.3999       4.87828732E+00
5787.7998       4.91991997E+00
5789.2002       4.95338631E+00
5790.6001       4.96274948E+00
5792.0000       4.97290802E+00
5793.3999       4.98964119E+00
5794.7998       4.99741077E+00
5796.2002       4.99063778E+00
5797.6001       4.97848606E+00
5799.0000       4.97868538E+00
5800.3999       5.00557804E+00
5801.7998       5.04621506E+00
5803.2002       5.05179310E+00
5804.6001       5.00916290E+00
5806.0000       4.97928238E+00
5807.3999       4.98824692E+00
5808.7998       5.00577736E+00
5810.2002       5.00896454E+00
5811.6001       5.02589607E+00
5813.0000       5.03067780E+00
5814.3999       5.01932240E+00
5815.7998       5.00796795E+00
5817.2002       4.99820709E+00
5818.6001       5.01334667E+00
5820.0000       5.06354618E+00
5821.3999       5.08207130E+00
5822.7998       5.06693268E+00
5824.2002       5.05119514E+00
5825.6001       5.05816746E+00
5827.0000       5.05059814E+00
5828.3999       5.05677319E+00
5829.7998       5.08027935E+00
5831.2002       5.06294823E+00
5832.6001       5.04242992E+00
5834.0000       5.03087616E+00
5835.3999       5.03525925E+00
5836.7998       5.04661369E+00
5838.2002       5.05557823E+00
5839.6001       5.06613541E+00
5841.0000       5.07171345E+00
5842.3999       5.06533813E+00
5843.7998       5.06394386E+00
5845.2002       5.06573677E+00
5846.6001       5.03127480E+00
5848.0000       5.02390480E+00
5849.3999       5.03326702E+00
5850.7998       5.02748966E+00
5852.2002       5.01494026E+00
5853.6001       4.99223137E+00
5855.0000       4.97908401E+00
5856.3999       4.97051811E+00
5857.7998       4.96474075E+00
5859.2002       4.96733093E+00
5860.6001       5.00059795E+00
5862.0000       5.02788830E+00
5863.3999       5.02490044E+00
5864.7998       5.01992035E+00
5866.2002       5.01095581E+00
5867.6001       5.01733017E+00
5869.0000       5.05239010E+00
5870.3999       5.06733036E+00
5871.7998       5.05000019E+00
5873.2002       5.05019951E+00
5874.6001       5.05737019E+00
5876.0000       5.03685284E+00
5877.3999       5.02669334E+00
5878.7998       5.02270889E+00
5880.2002       5.00179291E+00
5881.6001       4.98904419E+00
5883.0000       5.00159359E+00
5884.3999       4.99561787E+00
5885.7998       4.98665333E+00
5887.2002       4.92968178E+00
5888.6001       4.78884506E+00
5890.0000       4.68645382E+00
5891.3999       4.72908401E+00
5892.7998       4.81115532E+00
5894.2002       4.80657387E+00
5895.6001       4.76713181E+00
5897.0000       4.80059719E+00
5898.3999       4.89342594E+00
5899.7998       4.96255016E+00
5901.2002       5.00259018E+00
5902.6001       5.01613522E+00
5904.0000       5.02669334E+00
5905.3999       5.02908325E+00
5906.7998       5.03605556E+00
5908.2002       5.03744984E+00
5909.6001       5.03426266E+00
5911.0000       5.03764915E+00
5912.3999       5.03266907E+00
5913.7998       5.01255035E+00
5915.2002       4.98764992E+00
5916.6001       4.98286819E+00
5918.0000       4.99123478E+00
5919.3999       5.00418282E+00
5920.7998       5.02031898E+00
5922.2002       5.02748966E+00
5923.6001       5.02529907E+00
5925.0000       5.02370548E+00
5926.3999       5.02908325E+00
5927.7998       5.04502010E+00
5929.2002       5.03087616E+00
5930.6001       5.00478077E+00
5932.0000       5.00816727E+00
5933.3999       5.02031898E+00
5934.7998       5.02529907E+00
5936.2002       5.02649403E+00
5937.6001       5.02111530E+00
5939.0000       5.01454163E+00
5940.3999       5.01155376E+00
5941.7998       5.00876522E+00
5943.2002       5.02071762E+00
5944.6001       5.03406334E+00
5946.0000       5.02629471E+00
5947.3999       5.00577736E+00
5948.7998       4.97928238E+00
5950.2002       4.98247051E+00
5951.6001       4.99482059E+00
5953.0000       4.99541855E+00
5954.3999       4.98665333E+00
5955.7998       4.98505974E+00
5957.2002       5.00398445E+00
5958.6001       5.02071762E+00
5960.0000       5.03127480E+00
5961.3999       5.04123497E+00
5962.7998       5.04521942E+00
5964.2002       5.02051830E+00
5965.6001       5.00458145E+00
5967.0000       5.01235008E+00
5968.3999       5.02828693E+00
5969.7998       5.05059814E+00
5971.2002       5.04382515E+00
5972.6001       5.02250957E+00
5974.0000       5.02410316E+00
5975.3999       5.01553822E+00
5976.7998       4.98147392E+00
5978.2002       4.96115589E+00
5979.6001       4.99442196E+00
5981.0000       5.03067780E+00
5982.3999       5.01533890E+00
5983.7998       4.96573734E+00
5985.2002       4.96952152E+00
5986.6001       4.99243069E+00
5988.0000       5.01434231E+00
5989.3999       5.02330685E+00
5990.7998       5.01613522E+00
5992.2002       5.01992035E+00
5993.6001       5.03306770E+00
5995.0000       5.03864574E+00
5996.3999       5.02310753E+00
5997.7998       5.00577736E+00
5999.2002       5.01852608E+00
6000.6001       5.04083633E+00
6002.0000       5.02988052E+00
6003.3999       5.01633453E+00
6004.7998       5.02509975E+00
6006.2002       5.00816727E+00
6007.6001       4.97051811E+00
6009.0000       4.96633434E+00
6010.3999       4.99900436E+00
6011.7998       5.01314735E+00
6013.2002       4.99322701E+00
6014.6001       4.98685265E+00
6016.0000       4.98645401E+00
6017.3999       4.98605537E+00
6018.7998       4.98406410E+00
6020.2002       4.97350597E+00
6021.6001       4.96872520E+00
6023.0000       4.97569752E+00
6024.3999       4.99661350E+00
6025.7998       5.01294804E+00
6027.2002       5.01533890E+00
6028.6001       5.02151394E+00
6030.0000       5.01035881E+00
6031.3999       5.01454163E+00
6032.7998       5.02470112E+00
6034.2002       5.04083633E+00
6035.6001       5.03665352E+00
6037.0000       5.02709198E+00
6038.3999       5.03087616E+00
6039.7998       5.02689266E+00
6041.2002       5.01693249E+00
6042.6001       5.03087616E+00
6044.0000       5.03605556E+00
6045.3999       5.03167343E+00
6046.7998       5.03167343E+00
6048.2002       5.03266907E+00
6049.6001       5.06135464E+00
6051.0000       5.05119514E+00
6052.3999       5.03187275E+00
6053.7998       5.01394463E+00
6055.2002       5.01135445E+00
6056.6001       5.01294804E+00
6058.0000       5.02529907E+00
6059.3999       5.03585625E+00
6060.7998       5.03406334E+00
6062.2002       5.02669334E+00
6063.6001       5.02091599E+00
6065.0000       5.02131462E+00
6066.3999       5.02988052E+00
6067.7998       5.03306770E+00
6069.2002       5.03964138E+00
6070.6001       5.05697250E+00
6072.0000       5.06593609E+00
6073.3999       5.06135464E+00
6074.7998       5.04342651E+00
6076.2002       5.02450180E+00
6077.6001       5.01035881E+00
6079.0000       5.00019932E+00
6080.3999       4.99083710E+00
6081.7998       4.97749043E+00
6083.2002       4.98486042E+00
6084.6001       4.99043846E+00
6086.0000       4.99601555E+00
6087.3999       4.98864555E+00
6088.7998       4.97689247E+00
6090.2002       4.96892452E+00
6091.6001       4.96573734E+00
6093.0000       4.98804760E+00
6094.3999       5.00617504E+00
6095.7998       5.00617504E+00
6097.2002       5.00537872E+00
6098.6001       4.99940205E+00
6100.0000       4.97310734E+00
6101.3999       4.94203186E+00
6102.7998       4.95776939E+00
6104.2002       4.98127460E+00
6105.6001       4.97549820E+00
6107.0000       4.97290802E+00
6108.3999       4.99103546E+00
6109.7998       5.00816727E+00
6111.2002       5.01135445E+00
6112.6001       5.01892471E+00
6114.0000       5.02490044E+00
6115.3999       5.01334667E+00
6116.7998       4.99501991E+00
6118.2002       4.97569752E+00
6119.6001       4.95039845E+00
6121.0000       4.94023895E+00
6122.3999       4.95458221E+00
6123.7998       4.97171307E+00
6125.2002       4.97490025E+00
6126.6001       4.96055794E+00
6128.0000       4.95278931E+00
6129.3999       4.97251034E+00
6130.7998       4.98685265E+00
6132.2002       4.99243069E+00
6133.6001       4.96474075E+00
6135.0000       4.89880466E+00
6136.3999       4.85338688E+00
6137.7998       4.90577698E+00
6139.2002       4.96274948E+00
6140.6001       4.98266983E+00
6142.0000       4.99143410E+00
6143.3999       5.00478077E+00
6144.7998       5.00079727E+00
6146.2002       4.98406410E+00
6147.6001       4.98306751E+00
6149.0000       4.98286819E+00
6150.3999       4.98665333E+00
6151.7998       4.99721146E+00
6153.2002       4.99621487E+00
6154.6001       4.98466110E+00
6156.0000       4.97828674E+00
6157.3999       4.98346615E+00
6158.7998       4.97749043E+00
6160.2002       4.94243050E+00
6161.6001       4.89621544E+00
6163.0000       4.89223099E+00
6164.3999       4.92689228E+00
6165.7998       4.95179272E+00
6167.2002       4.95159340E+00
6168.6001       4.93625450E+00
6170.0000       4.92071724E+00
6171.3999       4.94083691E+00
6172.7998       4.97211170E+00
6174.2002       4.98984051E+00
6175.6001       4.99860573E+00
6177.0000       5.00298786E+00
6178.3999       5.01912308E+00
6179.7998       5.03406334E+00
6181.2002       5.03944206E+00
6182.6001       5.04482079E+00
6184.0000       5.03844643E+00
6185.3999       5.01633453E+00
6186.7998       4.99103546E+00
6188.2002       4.97251034E+00
6189.6001       4.95537853E+00
6191.0000       4.93685246E+00
6192.3999       4.94741058E+00
6193.7998       4.98505974E+00
6195.2002       5.01374531E+00
6196.6001       5.02828693E+00
6198.0000       5.03027916E+00
6199.3999       5.01374531E+00
6200.7998       5.00737095E+00
6202.2002       5.02748966E+00
6203.6001       5.04561806E+00
6205.0000       5.04800797E+00
6206.3999       5.04880524E+00
6207.7998       5.05059814E+00
6209.2002       5.05278873E+00
6210.6001       5.03784847E+00
6212.0000       5.00996017E+00
6213.3999       4.97729111E+00
6214.7998       4.95278931E+00
6216.2002       4.94980049E+00
6217.6001       4.97828674E+00
6219.0000       4.98266983E+00
6220.3999       4.96394444E+00
6221.7998       4.96354580E+00
6223.2002       4.98247051E+00
6224.6001       4.98625469E+00
6226.0000       4.98884487E+00
6227.3999       4.99581718E+00
6228.7998       4.98625469E+00
6230.2002       4.94960213E+00
6231.6001       4.91852570E+00
6233.0000       4.93366528E+00
6234.3999       4.99163342E+00
6235.7998       5.03067780E+00
6237.2002       5.01992035E+00
6238.6001       4.98665333E+00
6240.0000       4.96075726E+00
6241.3999       4.94960213E+00
6242.7998       4.94482040E+00
6244.2002       4.94541836E+00
6245.6001       4.95517921E+00
6247.0000       4.97749043E+00
6248.3999       5.00179291E+00
6249.7998       5.00836658E+00
6251.2002       4.98605537E+00
6252.6001       4.94681263E+00
6254.0000       4.92569733E+00
6255.3999       4.92529869E+00
6256.7998       4.91792870E+00
6258.2002       4.90039825E+00
6259.6001       4.90378475E+00
6261.0000       4.92928314E+00
6262.3999       4.92251015E+00
6263.7998       4.89043808E+00
6265.2002       4.89581680E+00
6266.6001       4.93944263E+00
6268.0000       4.96952152E+00
6269.3999       4.98705196E+00
6270.7998       4.97808743E+00
6272.2002       4.97569752E+00
6273.6001       4.97629452E+00
6275.0000       4.97549820E+00
6276.3999       4.97649384E+00
6277.7998       4.96792793E+00
6279.2002       4.96673298E+00
6280.6001       4.95258999E+00
6282.0000       4.93386459E+00
6283.3999       4.92988014E+00
6284.7998       4.95239067E+00
6286.2002       4.97828674E+00
6287.6001       5.00637436E+00
6289.0000       5.02071762E+00
6290.3999       5.01713181E+00
6291.7998       5.00139427E+00
6293.2002       4.99043846E+00
6294.6001       5.00179291E+00
6296.0000       4.99701214E+00
6297.3999       4.97370529E+00
6298.7998       4.96653366E+00
6300.2002       4.97051811E+00
6301.6001       4.96354580E+00
6303.0000       4.96673298E+00
6304.3999       4.98027897E+00
6305.7998       4.99223137E+00
6307.2002       5.00039864E+00
6308.6001       5.00398445E+00
6310.0000       5.00219154E+00
6311.3999       4.99183273E+00
6312.7998       4.98366547E+00
6314.2002       4.97031879E+00
6315.6001       4.94721127E+00
6317.0000       4.93406391E+00
6318.3999       4.92808723E+00
6319.7998       4.93386459E+00
6321.2002       4.95816708E+00
6322.6001       4.97968102E+00
6324.0000       4.98944187E+00
6325.3999       4.99800777E+00
6326.7998       5.01414299E+00
6328.2002       5.02250957E+00
6329.6001       5.01374531E+00
6331.0000       5.00916290E+00
6332.3999       5.02131462E+00
6333.7998       5.03864574E+00
6335.2002       5.00259018E+00
6336.6001       4.95976067E+00
6338.0000       4.96195221E+00
6339.3999       4.97529888E+00
6340.7998       4.98764992E+00
6342.2002       4.99083710E+00
6343.6001       4.97629452E+00
6345.0000       4.97589684E+00
6346.3999       5.00039864E+00
6347.7998       5.02091599E+00
6349.2002       5.01494026E+00
6350.6001       5.00338650E+00
6352.0000       5.00657368E+00
6353.3999       5.00079727E+00
6354.7998       4.98446178E+00
6356.2002       4.96354580E+00
6357.6001       4.95478058E+00
6359.0000       4.94322681E+00
6360.3999       4.93386459E+00
6361.7998       4.92390442E+00
6363.2002       4.91932297E+00
6364.6001       4.93406391E+00
6366.0000       4.95896435E+00
6367.3999       4.98107529E+00
6368.7998       5.00139427E+00
6370.2002       5.01155376E+00
6371.6001       5.01414299E+00
6373.0000       5.01832676E+00
6374.3999       5.01832676E+00
6375.7998       5.01792812E+00
6377.2002       5.01035881E+00
6378.6001       5.00318718E+00
6380.0000       4.99063778E+00
6381.3999       4.98286819E+00
6382.7998       4.99641418E+00
6384.2002       5.00697231E+00
6385.6001       5.01035881E+00
6387.0000       5.01693249E+00
6388.3999       5.01912308E+00
6389.7998       5.02171326E+00
6391.2002       5.01414299E+00
6392.6001       4.98944187E+00
6394.0000       4.97629452E+00
6395.3999       4.97988033E+00
6396.7998       5.00677299E+00
6398.2002       5.01513958E+00
6399.6001       4.97828674E+00
6401.0000       4.96733093E+00
6402.3999       4.99501991E+00
6403.7998       5.03167343E+00
6405.2002       5.01255035E+00
6406.6001       5.00219154E+00
6408.0000       4.98784828E+00
6409.3999       4.98426247E+00
6410.7998       4.98725128E+00
6412.2002       4.99263000E+00
6413.6001       4.99860573E+00
6415.0000       5.00079727E+00
6416.3999       5.00259018E+00
6417.7998       5.01434231E+00
6419.2002       4.99621487E+00
6420.6001       4.97390461E+00
6422.0000       4.99263000E+00
6423.3999       5.01952171E+00
6424.7998       5.03545856E+00
6426.2002       5.03426266E+00
6427.6001       5.03665352E+00
6429.0000       5.02509975E+00
6430.3999       5.00219154E+00
6431.7998       4.98525906E+00
6433.2002       4.99501991E+00
6434.6001       5.02151394E+00
6436.0000       5.02948189E+00
6437.3999       5.01015949E+00
6438.7998       4.98525906E+00
6440.2002       4.99063778E+00
6441.6001       5.02231026E+00
6443.0000       5.03884506E+00
6444.3999       5.04083633E+00
6445.7998       5.04820728E+00
6447.2002       5.04342651E+00
6448.6001       4.98486042E+00
6450.0000       4.93864536E+00
6451.3999       4.95438290E+00
6452.7998       4.99223137E+00
6454.2002       5.01195240E+00
6455.6001       5.00816727E+00
6457.0000       5.01772881E+00
6458.3999       5.03884506E+00
6459.7998       5.04103565E+00
6461.2002       5.01294804E+00
6462.6001       4.98127460E+00
6464.0000       4.98207188E+00
6465.3999       4.99561787E+00
6466.7998       4.99920368E+00
6468.2002       5.00717163E+00
6469.6001       5.00717163E+00
6471.0000       4.99840641E+00
6472.3999       5.01235008E+00
6473.7998       5.02051830E+00
6475.2002       5.01115513E+00
6476.6001       5.00896454E+00
6478.0000       5.03067780E+00
6479.3999       5.03944206E+00
6480.7998       5.01533890E+00
6482.2002       4.99741077E+00
6483.6001       5.00498009E+00
6485.0000       5.01912308E+00
6486.3999       5.03406334E+00
6487.7998       5.03306770E+00
6489.2002       5.02430248E+00
6490.6001       4.99482059E+00
6492.0000       4.95019913E+00
6493.3999       4.90717125E+00
6494.7998       4.87490082E+00
6496.2002       4.87988091E+00
6497.6001       4.92011929E+00
6499.0000       4.95338631E+00
6500.3999       4.97211170E+00
6501.7998       4.99123478E+00
6503.2002       5.02091599E+00
6504.6001       5.04601574E+00
6506.0000       5.05000019E+00
6507.3999       5.04502010E+00
6508.7998       5.05119514E+00
6510.2002       5.05278873E+00
6511.6001       5.04920292E+00
6513.0000       5.04302788E+00
6514.3999       5.03764915E+00
6515.7998       5.03286839E+00
6517.2002       5.03127480E+00
6518.6001       5.04203224E+00
6520.0000       5.06095600E+00
6521.3999       5.07031822E+00
6522.7998       5.06892395E+00
6524.2002       5.06912327E+00
6525.6001       5.06912327E+00
6527.0000       5.05637455E+00
6528.3999       5.04422283E+00
6529.7998       5.04641438E+00
6531.2002       5.03764915E+00
6532.6001       5.02390480E+00
6534.0000       5.03187275E+00
6535.3999       5.05199242E+00
6536.7998       5.06035805E+00
6538.2002       5.06035805E+00
6539.6001       5.06354618E+00
6541.0000       5.06792831E+00
6542.3999       5.06513977E+00
6543.7998       5.05378532E+00
6545.2002       5.03944206E+00
6546.6001       5.03147411E+00
6548.0000       5.03585625E+00
6549.3999       5.04282856E+00
6550.7998       5.03744984E+00
6552.2002       5.02470112E+00
6553.6001       5.01553822E+00
6555.0000       5.00099564E+00
6556.3999       4.99581718E+00
6557.7998       5.00617504E+00
6559.2002       4.99163342E+00
6560.6001       4.93665314E+00
6562.0000       4.85179329E+00
6563.3999       4.85577679E+00
6564.7998       4.94920349E+00
6566.2002       5.02151394E+00
6567.6001       5.04322720E+00
6569.0000       5.02988052E+00
6570.3999       5.01255035E+00
6571.7998       5.00298786E+00
6573.2002       5.00259018E+00
6574.6001       5.01195240E+00
6576.0000       5.03565788E+00
6577.3999       5.06613541E+00
6578.7998       5.07529926E+00
6580.2002       5.05756950E+00
6581.6001       5.04262924E+00
6583.0000       5.04800797E+00
6584.3999       5.05577660E+00
6585.7998       5.05936241E+00
6587.2002       5.06573677E+00
6588.6001       5.06693268E+00
6590.0000       5.04422283E+00
6591.3999       5.00617504E+00
6592.7998       4.98804760E+00
6594.2002       4.99780846E+00
6595.6001       5.01533890E+00
6597.0000       5.02569771E+00
6598.3999       5.04183292E+00
6599.7998       5.07589626E+00
6601.2002       5.09621525E+00
6602.6001       5.08147430E+00
6604.0000       5.05976105E+00
6605.3999       5.04302788E+00
6606.7998       5.03027916E+00
6608.2002       5.01494026E+00
6609.6001       5.00936222E+00
6611.0000       5.01932240E+00
6612.3999       5.01792812E+00
6613.7998       5.02191257E+00
6615.2002       5.05856609E+00
6616.6001       5.08346653E+00
6618.0000       5.09123516E+00
6619.3999       5.09004021E+00
6620.7998       5.08944225E+00
6622.2002       5.07848644E+00
6623.6001       5.05278873E+00
6625.0000       5.03884506E+00
6626.3999       5.05199242E+00
6627.7998       5.04940224E+00
6629.2002       5.04362583E+00
6630.6001       5.03326702E+00
6632.0000       5.01055813E+00
6633.3999       5.00378513E+00
6634.7998       5.01633453E+00
6636.2002       5.03266907E+00
6637.6001       5.04840660E+00
6639.0000       5.04083633E+00
6640.3999       5.03844643E+00
6641.7998       5.03685284E+00
6643.2002       5.03187275E+00
6644.6001       5.02968121E+00
6646.0000       5.02748966E+00
6647.3999       5.03067780E+00
6648.7998       5.04581642E+00
6650.2002       5.06095600E+00
6651.6001       5.06573677E+00
6653.0000       5.06474113E+00
6654.3999       5.05976105E+00
6655.7998       5.05139446E+00
6657.2002       5.04502010E+00
6658.6001       5.03705215E+00
6660.0000       5.02709198E+00
6661.3999       5.01593590E+00
6662.7998       4.99900436E+00
6664.2002       4.99083710E+00
6665.6001       4.99521923E+00
6667.0000       5.00577736E+00
6668.3999       5.02250957E+00
6669.7998       5.03306770E+00
6671.2002       5.03984070E+00
6672.6001       5.04063797E+00
6674.0000       5.03306770E+00
6675.3999       5.01633453E+00
6676.7998       4.98884487E+00
6678.2002       4.99581718E+00
6679.6001       5.02191257E+00
6681.0000       5.04521942E+00
6682.3999       5.05677319E+00
6683.7998       5.05896378E+00
6685.2002       5.05916309E+00
6686.6001       5.06334686E+00
6688.0000       5.05498028E+00
6689.3999       5.05239010E+00
6690.7998       5.05717087E+00
6692.2002       5.05956173E+00
6693.6001       5.04860592E+00
6695.0000       5.02270889E+00
6696.3999       5.00956154E+00
6697.7998       5.01772881E+00
6699.2002       5.02390480E+00
6700.6001       5.03366566E+00
6702.0000       5.03346634E+00
6703.3999       5.02888489E+00
6704.7998       5.03207207E+00
6706.2002       5.03884506E+00
6707.6001       5.03366566E+00
6709.0000       5.02569771E+00
6710.3999       5.01035881E+00
6711.7998       5.00259018E+00
6713.2002       5.00000000E+00
6714.6001       4.98964119E+00
6716.0000       4.97888470E+00
6717.3999       4.99163342E+00
6718.7998       5.02410316E+00
6720.2002       5.05438232E+00
6721.6001       5.06613541E+00
6723.0000       5.06832695E+00
6724.3999       5.05836678E+00
6725.7998       5.04422283E+00
6727.2002       5.04442215E+00
6728.6001       5.04382515E+00
6730.0000       5.03466129E+00
6731.3999       5.02988052E+00
6732.7998       5.03187275E+00
6734.2002       5.04223061E+00
6735.6001       5.05298805E+00
6737.0000       5.04342651E+00
6738.3999       5.03107548E+00
6739.7998       5.03127480E+00
6741.2002       5.02908325E+00
6742.6001       5.00956154E+00
6744.0000       5.00318718E+00
6745.3999       5.00498009E+00
6746.7998       5.01533890E+00
6748.2002       5.02370548E+00
6749.6001       5.01852608E+00
6751.0000       5.01673317E+00
6752.3999       5.01434231E+00
6753.7998       5.01135445E+00
6755.2002       5.02310753E+00
6756.6001       5.04422283E+00
6758.0000       5.06354618E+00
6759.3999       5.06015968E+00
6760.7998       5.04123497E+00
6762.2002       5.04282856E+00
6763.6001       5.05956173E+00
6765.0000       5.05239010E+00
6766.3999       5.04004002E+00
6767.7998       5.02848625E+00
6769.2002       5.02171326E+00
6770.6001       5.01553822E+00
6772.0000       5.02231026E+00
6773.3999       5.03227043E+00
6774.7998       5.03605556E+00
6776.2002       5.04143429E+00
6777.6001       5.04741001E+00
6779.0000       5.05856609E+00
6780.3999       5.06573677E+00
6781.7998       5.05776882E+00
6783.2002       5.02051830E+00
6784.6001       5.00000000E+00
6786.0000       5.00677299E+00
6787.3999       5.02509975E+00
6788.7998       5.04581642E+00
6790.2002       5.05099583E+00
6791.6001       5.04820728E+00
6793.0000       5.04561806E+00
6794.3999       5.03406334E+00
6795.7998       5.02569771E+00
6797.2002       5.03246975E+00
6798.6001       5.04840660E+00
6800.0000       5.05458164E+00
6801.3999       5.04860592E+00
6802.7998       5.04760933E+00
6804.2002       5.04661369E+00
6805.6001       5.04482079E+00
6807.0000       5.04242992E+00
6808.3999       5.04242992E+00
6809.7998       5.04721069E+00
6811.2002       5.05996037E+00
6812.6001       5.06633472E+00
6814.0000       5.05697250E+00
6815.3999       5.04900360E+00
6816.7998       5.04681301E+00
6818.2002       5.04701233E+00
6819.6001       5.03804779E+00
6821.0000       5.03505993E+00
6822.3999       5.04541874E+00
6823.7998       5.05577660E+00
6825.2002       5.06235027E+00
6826.6001       5.05159378E+00
6828.0000       5.03545856E+00
6829.3999       5.02350616E+00
6830.7998       5.02689266E+00
6832.2002       5.03904343E+00
6833.6001       5.04442215E+00
6835.0000       5.04302788E+00
6836.3999       5.03406334E+00
6837.7998       5.02649403E+00
6839.2002       5.00856590E+00
6840.6001       4.99123478E+00
6842.0000       4.98306751E+00
6843.3999       4.98545837E+00
6844.7998       4.99840641E+00
6846.2002       5.01314735E+00
6847.6001       5.02310753E+00
6849.0000       5.03127480E+00
6850.3999       5.04203224E+00
6851.7998       5.05099583E+00
6853.2002       5.04482079E+00
6854.6001       5.02529907E+00
6856.0000       5.00637436E+00
6857.3999       4.99900436E+00
6858.7998       5.00239086E+00
6860.2002       5.00398445E+00
6861.6001       5.00298786E+00
6863.0000       5.00537872E+00
6864.3999       4.99422264E+00
6865.7998       4.93824673E+00
6867.2002       4.84920311E+00
6868.6001       4.78466129E+00
6870.0000       4.77051830E+00
6871.3999       4.77609539E+00
6872.7998       4.78286839E+00
6874.2002       4.80199242E+00
6875.6001       4.82988071E+00
6877.0000       4.86314774E+00
6878.3999       4.90039825E+00
6879.7998       4.93207169E+00
6881.2002       4.94820690E+00
6882.6001       4.95537853E+00
6884.0000       4.95298767E+00
6885.3999       4.94043827E+00
6886.7998       4.93346596E+00
6888.2002       4.93047810E+00
6889.6001       4.93426323E+00
6891.0000       4.94701195E+00
6892.3999       4.94482040E+00
6893.7998       4.94800758E+00
6895.2002       4.94840622E+00
6896.6001       4.95059776E+00
6898.0000       4.96593666E+00
6899.3999       4.97231102E+00
6900.7998       4.97549820E+00
6902.2002       4.97689247E+00
6903.6001       4.97629452E+00
6905.0000       4.98306751E+00
6906.3999       4.98326683E+00
6907.7998       4.97908401E+00
6909.2002       4.97470093E+00
6910.6001       4.97968102E+00
6912.0000       4.97988033E+00
6913.3999       4.96952152E+00
6914.7998       4.97231102E+00
6916.2002       4.98087692E+00
6917.6001       4.98904419E+00
6919.0000       5.00458145E+00
6920.3999       5.02111530E+00
6921.7998       5.01952171E+00
6923.2002       5.00378513E+00
6924.6001       4.98545837E+00
6926.0000       4.97629452E+00
6927.3999       4.97270966E+00
6928.7998       4.97629452E+00
6930.2002       4.98964119E+00
6931.6001       4.99243069E+00
6933.0000       4.98286819E+00
6934.3999       4.98446178E+00
6935.7998       4.99422264E+00
6937.2002       4.99322701E+00
6938.6001       4.98884487E+00
6940.0000       4.99541855E+00
6941.3999       5.00557804E+00
6942.7998       5.00278854E+00
6944.2002       4.98466110E+00
6945.6001       4.97111511E+00
6947.0000       4.97749043E+00
6948.3999       4.98904419E+00
6949.7998       5.00000000E+00
6951.2002       4.99800777E+00
6952.6001       4.98764992E+00
6954.0000       4.98605537E+00
6955.3999       4.98904419E+00
6956.7998       4.99382496E+00
6958.2002       4.99263000E+00
6959.6001       4.99501991E+00
6961.0000       5.00239086E+00
6962.3999       5.01354599E+00
6963.7998       5.02768898E+00
6965.2002       5.03047848E+00
6966.6001       5.03007984E+00
6968.0000       5.03924274E+00
6969.3999       5.03904343E+00
6970.7998       5.02310753E+00
6972.2002       5.01354599E+00
6973.6001       5.01633453E+00
6975.0000       5.01832676E+00
6976.3999       4.99143410E+00
6977.7998       4.95079708E+00
6979.2002       4.93525887E+00
6980.6001       4.95219135E+00
6982.0000       4.98565769E+00
6983.3999       5.01314735E+00
6984.7998       5.02051830E+00
6986.2002       5.02211189E+00
6987.6001       5.01513958E+00
6989.0000       5.00796795E+00
6990.3999       4.99721146E+00
6991.7998       4.99103546E+00
6993.2002       4.99442196E+00
6994.6001       5.00577736E+00
6996.0000       5.01653385E+00
6997.3999       5.00896454E+00
6998.7998       4.98705196E+00
7000.2002       4.97171307E+00
7001.6001       4.97390461E+00
7003.0000       4.98446178E+00
7004.3999       4.98266983E+00
7005.7998       4.97649384E+00
7007.2002       4.98167324E+00
7008.6001       4.99083710E+00
7010.0000       5.00000000E+00
7011.3999       5.00358582E+00
7012.7998       5.00159359E+00
7014.2002       4.98804760E+00
7015.6001       4.94820690E+00
7017.0000       4.92270947E+00
7018.3999       4.95976067E+00
7019.7998       4.99442196E+00
7021.2002       4.99900436E+00
7022.6001       4.97609520E+00
7024.0000       4.94800758E+00
7025.3999       4.94601631E+00
7026.7998       4.95657349E+00
7028.2002       4.96573734E+00
7029.6001       4.97848606E+00
7031.0000       4.99581718E+00
7032.3999       5.00697231E+00
7033.7998       5.00099564E+00
7035.2002       4.98545837E+00
7036.6001       4.99601555E+00
7038.0000       4.98326683E+00
7039.3999       4.97729111E+00
7040.7998       4.99940205E+00
7042.2002       5.02509975E+00
7043.6001       5.03207207E+00
7045.0000       5.01713181E+00
7046.3999       5.00159359E+00
7047.7998       5.00776863E+00
7049.2002       5.02729034E+00
7050.6001       5.01633453E+00
7052.0000       4.98326683E+00
7053.3999       4.96972084E+00
7054.7998       4.99023914E+00
7056.2002       5.00358582E+00
7057.6001       5.00199223E+00
7059.0000       4.99761009E+00
7060.3999       4.99621487E+00
7061.7998       5.00159359E+00
7063.2002       4.99561787E+00
7064.6001       4.99123478E+00
7066.0000       4.98725128E+00
7067.3999       4.96932316E+00
7068.7998       4.95995998E+00
7070.2002       4.97390461E+00
7071.6001       4.99561787E+00
7073.0000       5.00836658E+00
7074.3999       5.01334667E+00
7075.7998       5.01752949E+00
7077.2002       5.02390480E+00
7078.6001       5.03127480E+00
7080.0000       5.03625488E+00
7081.3999       5.02729034E+00
7082.7998       5.00438213E+00
7084.2002       4.98446178E+00
7085.6001       4.97251034E+00
7087.0000       4.97709179E+00
7088.3999       4.98864555E+00
7089.7998       4.98645401E+00
7091.2002       4.97490025E+00
7092.6001       4.97609520E+00
7094.0000       4.98486042E+00
7095.3999       4.98625469E+00
7096.7998       4.98924255E+00
7098.2002       5.00159359E+00
7099.6001       5.01055813E+00
7101.0000       5.01454163E+00
7102.3999       5.00318718E+00
7103.7998       5.01533890E+00
7105.2002       5.02509975E+00
7106.6001       5.01115513E+00
7108.0000       4.98605537E+00
7109.3999       4.96653366E+00
7110.7998       4.96474075E+00
7112.2002       4.97808743E+00
7113.6001       4.99621487E+00
7115.0000       5.01613522E+00
7116.3999       5.01533890E+00
7117.7998       5.00019932E+00
7119.2002       4.99940205E+00
7120.6001       5.00816727E+00
7122.0000       5.00537872E+00
7123.3999       5.00976086E+00
7124.7998       5.00856590E+00
7126.2002       4.99900436E+00
7127.6001       4.98824692E+00
7129.0000       4.98625469E+00
7130.3999       4.98406410E+00
7131.7998       4.98207188E+00
7133.2002       4.99243069E+00
7134.6001       5.00916290E+00
7136.0000       5.03107548E+00
7137.3999       5.04681301E+00
7138.7998       5.05039883E+00
7140.2002       5.04561806E+00
7141.6001       5.03446198E+00
7143.0000       5.02131462E+00
7144.3999       5.00398445E+00
7145.7998       4.99282837E+00
7147.2002       4.98565769E+00
7148.6001       4.97629452E+00
7150.0000       4.97310734E+00
7151.3999       4.98127460E+00
7152.7998       4.99023914E+00
7154.2002       5.00199223E+00
7155.6001       5.01175308E+00
7157.0000       5.01613522E+00
7158.3999       5.02211189E+00
7159.7998       5.02290821E+00
7161.2002       5.01533890E+00
7162.6001       5.01195240E+00
7164.0000       4.99681282E+00
7165.3999       4.98067760E+00
7166.7998       4.97470093E+00
7168.2002       4.98466110E+00
7169.6001       4.98486042E+00
7171.0000       4.97370529E+00
7172.3999       4.96892452E+00
7173.7998       4.95199203E+00
7175.2002       4.94103622E+00
7176.6001       4.93884468E+00
7178.0000       4.93585682E+00
7179.3999       4.93167305E+00
7180.7998       4.92928314E+00
7182.2002       4.90816689E+00
7183.6001       4.88266945E+00
7185.0000       4.86553764E+00
7186.3999       4.85398388E+00
7187.7998       4.83685303E+00
7189.2002       4.83844662E+00
7190.6001       4.85936260E+00
7192.0000       4.86474133E+00
7193.3999       4.87350559E+00
7194.7998       4.88904381E+00
7196.2002       4.90677261E+00
7197.6001       4.92470169E+00
7199.0000       4.92808723E+00
7200.3999       4.91832638E+00
7201.7998       4.91493988E+00
7203.2002       4.92330647E+00
7204.6001       4.92848587E+00
7206.0000       4.92689228E+00
7207.3999       4.93187237E+00
7208.7998       4.95019913E+00
7210.2002       4.97649384E+00
7211.6001       5.00737095E+00
7213.0000       5.03486061E+00
7214.3999       5.03944206E+00
7215.7998       5.03306770E+00
7217.2002       5.03744984E+00
7218.6001       5.04760933E+00
7220.0000       5.06494045E+00
7221.3999       5.06513977E+00
7222.7998       5.04521942E+00
7224.2002       5.03505993E+00
7225.6001       5.03147411E+00
7227.0000       5.03705215E+00
7228.3999       5.03665352E+00
7229.7998       5.01752949E+00
7231.2002       5.00039864E+00
7232.6001       4.98745060E+00
7234.0000       4.97430325E+00
7235.3999       4.96693230E+00
7236.7998       4.97111511E+00
7238.2002       4.98705196E+00
7239.6001       5.00059795E+00
7241.0000       4.98844624E+00
7242.3999       4.97310734E+00
7243.7998       4.97848606E+00
7245.2002       4.99641418E+00
7246.6001       5.00637436E+00
7248.0000       5.00896454E+00
7249.3999       5.00737095E+00
7250.7998       4.99661350E+00
7252.2002       4.98705196E+00
7253.6001       4.97111511E+00
7255.0000       4.96095657E+00
7256.3999       4.97629452E+00
7257.7998       5.00478077E+00
7259.2002       5.01075745E+00
7260.6001       4.99243069E+00
7262.0000       4.98087692E+00
7263.3999       4.96314716E+00
7264.7998       4.95099640E+00
7266.2002       4.96454144E+00
7267.6001       4.98366547E+00
7269.0000       4.99800777E+00
7270.3999       4.99661350E+00
7271.7998       4.98286819E+00
7273.2002       4.97011948E+00
7274.6001       4.95517921E+00
7276.0000       4.94322681E+00
7277.3999       4.93605614E+00
7278.7998       4.92768955E+00
7280.2002       4.92988014E+00
7281.6001       4.94980049E+00
7283.0000       4.96454144E+00
7284.3999       4.96235085E+00
7285.7998       4.95557785E+00
7287.2002       4.94800758E+00
7288.6001       4.93167305E+00
7290.0000       4.91314697E+00
7291.3999       4.89262962E+00
7292.7998       4.87768936E+00
7294.2002       4.88645458E+00
7295.6001       4.89940262E+00
7297.0000       4.91653442E+00
7298.3999       4.93844604E+00
7299.7998       4.94581699E+00
7301.2002       4.94561768E+00
7302.6001       4.94163322E+00
7304.0000       4.93725109E+00
7305.3999       4.92948246E+00
7306.7998       4.92888451E+00
7308.2002       4.94900417E+00
7309.6001       4.95956230E+00
7311.0000       4.95876503E+00
7312.3999       4.95995998E+00
7313.7998       4.95358562E+00
7315.2002       4.94521904E+00
7316.6001       4.94601631E+00
7318.0000       4.94262981E+00
7319.3999       4.93127441E+00
7320.7998       4.92749023E+00
7322.2002       4.93804741E+00
7323.6001       4.95059776E+00
7325.0000       4.95418358E+00
7326.3999       4.95079708E+00
7327.7998       4.94800758E+00
7329.2002       4.94900417E+00
7330.6001       4.95119476E+00
7332.0000       4.95836639E+00
7333.3999       4.95099640E+00
7334.7998       4.94721127E+00
7336.2002       4.96195221E+00
7337.6001       4.97908401E+00
7339.0000       4.99043846E+00
7340.3999       4.99960136E+00
7341.7998       4.99920368E+00
7343.2002       4.99183273E+00
7344.6001       4.98047829E+00
7346.0000       4.96274948E+00
7347.3999       4.94980049E+00
7348.7998       4.95179272E+00
7350.2002       4.95517921E+00
7351.6001       4.94302750E+00
7353.0000       4.93306732E+00
7354.3999       4.93227100E+00
7355.7998       4.93665314E+00
7357.2002       4.93984032E+00
7358.6001       4.94521904E+00
7360.0000       4.94561768E+00
7361.3999       4.94721127E+00
7362.7998       4.94601631E+00
7364.2002       4.94203186E+00
7365.6001       4.93227100E+00
7367.0000       4.93227100E+00
7368.3999       4.94482040E+00
7369.7998       4.95438290E+00
7371.2002       4.96553802E+00
7372.6001       4.97071743E+00
7374.0000       4.98227119E+00
7375.3999       4.98545837E+00
7376.7998       4.97171307E+00
7378.2002       4.96235085E+00
7379.6001       4.95737076E+00
7381.0000       4.96334648E+00
7382.3999       4.96912384E+00
7383.7998       4.95776939E+00
7385.2002       4.94282913E+00
7386.6001       4.92410374E+00
7388.0000       4.91075706E+00
7389.3999       4.90219116E+00
7390.7998       4.90139484E+00
7392.2002       4.91095638E+00
7393.6001       4.92749023E+00
7395.0000       4.94442272E+00
7396.3999       4.95816708E+00
7397.7998       4.95936298E+00
7399.2002       4.95657349E+00
7400.6001       4.95478058E+00
7402.0000       4.95358562E+00
7403.3999       4.95617485E+00
7404.7998       4.96115589E+00
7406.2002       4.95856571E+00
7407.6001       4.95398426E+00
7409.0000       4.95019913E+00
7410.3999       4.93705177E+00
7411.7998       4.91852570E+00
7413.2002       4.91653442E+00
7414.6001       4.92290878E+00
7416.0000       4.91593647E+00
7417.3999       4.91055775E+00
7418.7998       4.91753006E+00
7420.2002       4.92709160E+00
7421.6001       4.92569733E+00
7423.0000       4.92071724E+00
7424.3999       4.91215134E+00
7425.7998       4.91493988E+00
7427.2002       4.94561768E+00
