#
# Spectrum of Yale1755, spectral type M5v
# Source: Jacoby, Hunter, & Christian, 1984, ApJ, 56, 257
#         Scaled to flux=1.0 at 5500 Angstroms.
#
# Wave: wavelength in Angstroms
# Flux: scaled flux normalized to 1.0 at 5500A then shifted
#       in order of spectral type
Wave            Flux
3510.0000       1.04297638E-01
3511.3999       1.29982948E-01
3512.8000       1.37751579E-01
3514.2000       1.30589485E-01
3515.6001       1.30395889E-01
3517.0000       1.11458778E-01
3518.3999       1.38626099E-01
3519.8000       1.21850014E-01
3521.2000       9.06286240E-02
3522.6001       8.16946030E-02
3524.0000       8.89539719E-02
3525.3999       1.11580849E-01
3526.8000       9.10654068E-02
3528.2000       9.09690857E-02
3529.6001       1.22820854E-01
3531.0000       1.23524666E-01
3532.3999       1.29060745E-01
3533.8000       1.56154633E-01
3535.2000       1.41272545E-01
3536.6001       1.21825218E-01
3538.0000       9.71593857E-02
3539.3999       1.20733261E-01
3540.8000       1.47875786E-01
3542.2000       1.39573097E-01
3543.6001       1.49016380E-01
3545.0000       1.71668053E-01
3546.3999       1.34159088E-01
3547.8000       9.83009338E-02
3549.2000       1.13935471E-01
3550.6001       1.27821922E-01
3552.0000       1.25200272E-01
3553.3999       1.31075859E-01
3554.8000       1.44015312E-01
3556.2000       1.32775307E-01
3557.6001       9.75961685E-02
3559.0000       9.33723450E-02
3560.3999       1.08424187E-01
3561.8000       9.47799683E-02
3563.2000       6.52103424E-02
3564.6001       5.33142090E-02
3566.0000       7.20319748E-02
3567.3999       8.63075256E-02
3568.8000       7.69119263E-02
3570.2000       6.79531097E-02
3571.6001       6.64234161E-02
3573.0000       5.18817902E-02
3574.3999       6.40449524E-02
3575.8000       8.01897049E-02
3577.2000       7.91940689E-02
3578.6001       8.04567337E-02
3580.0000       5.70526123E-02
3581.3999       4.84828949E-02
3582.8000       5.43088913E-02
3584.2000       6.23455048E-02
3585.6001       7.31487274E-02
3587.0000       8.85896683E-02
3588.3999       1.06943130E-01
3589.8000       1.08545303E-01
3591.2000       1.04612350E-01
3592.6001       1.08521461E-01
3594.0000       1.11094475E-01
3595.3999       1.10657692E-01
3596.8000       1.12041473E-01
3598.2000       1.08059883E-01
3599.6001       1.09614372E-01
3601.0000       1.26632690E-01
3602.3999       1.33843422E-01
3603.8000       1.01602554E-01
3605.2000       6.87303543E-02
3606.6001       6.64234161E-02
3608.0000       7.53583908E-02
3609.3999       7.63530731E-02
3610.8000       7.43865967E-02
3612.2000       9.67464447E-02
3613.6001       1.31269455E-01
3615.0000       1.26486778E-01
3616.3999       9.66253281E-02
3617.8000       8.23745728E-02
3619.2000       9.20610428E-02
3620.6001       1.14712715E-01
3622.0000       1.28355980E-01
3623.3999       1.25297546E-01
3624.8000       1.27361298E-01
3626.2000       1.23840332E-01
3627.6001       1.20660782E-01
3629.0000       1.13935471E-01
3630.3999       1.16872787E-01
3631.8000       1.41442299E-01
3633.2000       1.27239227E-01
3634.6001       1.15562439E-01
3636.0000       1.01384163E-01
3637.3999       1.16775513E-01
3638.8000       1.42461777E-01
3640.2000       1.20368958E-01
3641.6001       1.14518166E-01
3643.0000       1.26244545E-01
3644.3999       1.18159294E-01
3645.8000       6.74676895E-02
3647.2000       1.98469162E-02
3648.6001       5.02061844E-02
3650.0000       1.04126930E-01
3651.3999       1.13959312E-01
3652.8000       1.07841492E-01
3654.2000       1.10512733E-01
3655.6001       1.27603531E-01
3657.0000       1.43141747E-01
3658.3999       1.39573097E-01
3659.8000       1.34061813E-01
3661.2000       1.07501984E-01
3662.6001       1.10731125E-01
3664.0000       1.40786171E-01
3665.3999       1.57320023E-01
3666.8000       1.38772011E-01
3668.2000       1.29885674E-01
3669.6001       1.15489006E-01
3671.0000       1.07380867E-01
3672.3999       1.06627464E-01
3673.8000       1.15950584E-01
3675.2000       1.32701874E-01
3676.6001       1.14178658E-01
3678.0000       1.13910675E-01
3679.3999       1.23888969E-01
3680.8000       1.29643440E-01
3682.2000       1.31220818E-01
3683.6001       1.32046700E-01
3685.0000       1.16848946E-01
3686.3999       1.00704193E-01
3687.8000       1.08351707E-01
3689.2000       1.22189522E-01
3690.6001       1.33381844E-01
3692.0000       1.52318954E-01
3693.3999       1.43481255E-01
3694.8000       1.67613983E-01
3696.2000       1.52488708E-01
3697.6001       1.38674736E-01
3699.0000       1.34984016E-01
3700.3999       1.15974426E-01
3701.8000       1.22529984E-01
3703.2000       1.21485710E-01
3704.6001       1.05681419E-01
3706.0000       9.12361145E-02
3707.3999       9.15269852E-02
3708.8000       1.02111816E-01
3710.2000       1.26219749E-01
3711.6001       1.19786263E-01
3713.0000       1.11580849E-01
3714.3999       1.09759331E-01
3715.8000       1.12939835E-01
3717.2000       1.10318184E-01
3718.6001       9.57031250E-02
3720.0000       6.84871674E-02
3721.3999       7.07941055E-02
3722.8000       9.19637680E-02
3724.2000       1.00170135E-01
3725.6001       9.72328186E-02
3727.0000       1.03204727E-01
3728.3999       1.06457710E-01
3729.8000       9.87615585E-02
3731.2000       8.34913254E-02
3732.6001       7.22990036E-02
3734.0000       5.76591492E-02
3735.3999       4.08592224E-02
3736.8000       4.84828949E-02
3738.2000       6.78558350E-02
3739.6001       8.89053345E-02
3741.0000       1.15489006E-01
3742.3999       1.04928017E-01
3743.8000       8.32242966E-02
3745.2000       5.97229004E-02
3746.6001       5.37023544E-02
3748.0000       7.23237991E-02
3749.3999       7.64989853E-02
3750.8000       9.82522964E-02
3752.2000       1.19858742E-01
3753.6001       1.26414299E-01
3755.0000       1.23888969E-01
3756.3999       1.14202499E-01
3757.8000       1.14954948E-01
3759.2000       1.12259865E-01
3760.6001       1.17795944E-01
3762.0000       1.24860764E-01
3763.3999       1.18305206E-01
3764.8000       1.22189522E-01
3766.2000       1.16800308E-01
3767.6001       1.35931015E-01
3769.0000       1.55595779E-01
3770.3999       1.55377388E-01
3771.8000       1.52148247E-01
3773.2000       1.76692963E-01
3774.6001       1.88370705E-01
3776.0000       1.76183701E-01
3777.3999       1.62442207E-01
3778.8000       1.57417297E-01
3780.2000       1.71449661E-01
3781.6001       1.65137291E-01
3783.0000       1.51687622E-01
3784.3999       1.45301819E-01
3785.8000       1.31561279E-01
3787.2000       1.22407913E-01
3788.6001       1.27409935E-01
3790.0000       1.42898560E-01
3791.3999       1.64772987E-01
3792.8000       1.73100471E-01
3794.2000       1.54794693E-01
3795.6001       1.32021904E-01
3797.0000       1.35882378E-01
3798.3999       1.45521164E-01
3799.8000       1.46176338E-01
3801.2000       1.47657394E-01
3802.6001       1.38115883E-01
3804.0000       1.37023926E-01
3805.3999       1.53726578E-01
3806.8000       1.69118881E-01
3808.2000       1.77105904E-01
3809.6001       1.73342705E-01
3811.0000       1.56834602E-01
3812.3999       1.49016380E-01
3813.8000       1.46977425E-01
3815.2000       1.35712624E-01
3816.6001       1.24350548E-01
3818.0000       1.27458572E-01
3819.3999       1.31487846E-01
3820.8000       1.22019768E-01
3822.2000       1.09080315E-01
3823.6001       9.01432037E-02
3825.0000       9.61885452E-02
3826.3999       1.30444527E-01
3827.8000       1.45301819E-01
3829.2000       1.38941765E-01
3830.6001       1.29327774E-01
3832.0000       1.32265091E-01
3833.3999       1.37994766E-01
3834.8000       1.35979652E-01
3836.2000       1.38310432E-01
3837.6001       1.28817558E-01
3839.0000       1.20004654E-01
3840.3999       1.33769989E-01
3841.8000       1.45739555E-01
3843.2000       1.52366638E-01
3844.6001       1.61374092E-01
3846.0000       1.77372932E-01
3847.3999       1.80892944E-01
3848.8000       1.63680077E-01
3850.2000       1.51638985E-01
3851.6001       1.44088745E-01
3853.0000       1.35542870E-01
3854.3999       1.18353844E-01
3855.8000       1.03156090E-01
3857.2000       9.38091278E-02
3858.6001       8.20341110E-02
3860.0000       8.39767456E-02
3861.3999       1.08351707E-01
3862.8000       1.20368958E-01
3864.2000       1.33260727E-01
3865.6001       1.58388138E-01
3867.0000       1.77008629E-01
3868.3999       1.79582596E-01
3869.8000       1.89342499E-01
3871.2000       1.89050674E-01
3872.6001       1.65258408E-01
3874.0000       1.27312660E-01
3875.3999       1.14372253E-01
3876.8000       1.26365662E-01
3878.2000       1.43554688E-01
3879.6001       1.52828217E-01
3881.0000       1.52901649E-01
3882.3999       1.34474754E-01
3883.8000       1.23428345E-01
3885.2000       1.25759125E-01
3886.6001       1.31682396E-01
3888.0000       1.38456345E-01
3889.3999       1.54819489E-01
3890.8000       1.63291931E-01
3892.2000       1.70988083E-01
3893.6001       1.66229248E-01
3895.0000       1.40543938E-01
3896.3999       1.36052132E-01
3897.8000       1.36586189E-01
3899.2000       1.44574165E-01
3900.6001       1.62539482E-01
3902.0000       1.88467979E-01
3903.3999       1.97547913E-01
3904.8000       1.80504799E-01
3906.2000       1.43578529E-01
3907.6001       1.37679100E-01
3909.0000       1.52173042E-01
3910.3999       1.55086517E-01
3911.8000       1.62952423E-01
3913.2000       1.79606438E-01
3914.6001       2.04273224E-01
3916.0000       2.03350067E-01
3917.3999       1.85797691E-01
3918.8000       1.61301613E-01
3920.2000       1.58096313E-01
3921.6001       1.35494232E-01
3923.0000       1.26462936E-01
3924.3999       1.35008812E-01
3925.8000       1.53387070E-01
3927.2000       1.41588211E-01
3928.6001       1.37363434E-01
3930.0000       1.33576393E-01
3931.3999       1.33818626E-01
3932.8000       1.35494232E-01
3934.2000       1.33502960E-01
3935.6001       1.39402390E-01
3937.0000       1.47220612E-01
3938.3999       1.47778511E-01
3939.8000       1.49041176E-01
3941.2000       1.30322456E-01
3942.6001       1.16023064E-01
3944.0000       1.15076065E-01
3945.3999       1.28186226E-01
3946.8000       1.43020630E-01
3948.2000       1.47511482E-01
3949.6001       1.57951355E-01
3951.0000       1.83490753E-01
3952.3999       1.93638802E-01
3953.8000       1.75891876E-01
3955.2000       1.72517776E-01
3956.6001       1.65598869E-01
3958.0000       1.31731033E-01
3959.3999       1.04175568E-01
3960.8000       9.22307968E-02
3962.2000       1.03253365E-01
3963.6001       1.32046700E-01
3965.0000       1.49502754E-01
3966.3999       1.45205498E-01
3967.8000       1.44307137E-01
3969.2000       1.55426025E-01
3970.6001       1.71109200E-01
3972.0000       1.83443069E-01
3973.3999       1.99393272E-01
3974.8000       2.17309952E-01
3976.2000       2.35736847E-01
3977.6001       2.43748665E-01
3979.0000       2.35323906E-01
3980.3999       2.37727165E-01
3981.8000       2.57586479E-01
3983.2000       2.56858826E-01
3984.6001       2.52488136E-01
3986.0000       2.62928009E-01
3987.3999       2.74824142E-01
3988.8000       2.59043694E-01
3990.2000       2.55887032E-01
3991.6001       2.56858826E-01
3993.0000       2.55401611E-01
3994.3999       2.51760483E-01
3995.8000       2.64627457E-01
3997.2000       2.69240379E-01
3998.6001       2.68026352E-01
4000.0000       2.70454407E-01
4001.3999       2.72639275E-01
4002.8000       2.79437065E-01
4004.2000       2.86720276E-01
4005.6001       2.94246674E-01
4007.0000       3.03229332E-01
4008.3999       3.17067146E-01
4009.8000       3.18281174E-01
4011.2000       3.15125465E-01
4012.6001       3.16338539E-01
4014.0000       3.05414200E-01
4015.3999       2.94003487E-01
4016.8000       2.96431541E-01
4018.2000       3.00558090E-01
4019.6001       2.85991669E-01
4021.0000       2.77252197E-01
4022.3999       2.73610115E-01
4023.8000       2.73366928E-01
4025.2000       2.70696640E-01
4026.6001       2.71667480E-01
4028.0000       2.62928009E-01
4029.3999       2.42073059E-01
4030.8000       2.21509933E-01
4032.2000       2.14396477E-01
4033.6001       2.43020058E-01
4035.0000       2.79437065E-01
4036.3999       3.00072670E-01
4037.8000       3.04928780E-01
4039.2000       3.06870461E-01
4040.6001       3.01772118E-01
4042.0000       2.81621933E-01
4043.3999       2.61957169E-01
4044.8000       2.43748665E-01
4046.2000       2.47389793E-01
4047.6001       2.73853302E-01
4049.0000       3.07599068E-01
4050.3999       3.28477859E-01
4051.8000       3.26778412E-01
4053.2000       3.14396858E-01
4054.6001       2.99101830E-01
4056.0000       2.96188354E-01
4057.3999       3.02986145E-01
4058.8000       3.03714752E-01
4060.2000       2.97402382E-01
4061.6001       2.79679298E-01
4063.0000       2.61957169E-01
4064.3999       2.52973557E-01
4065.8000       2.47389793E-01
4067.2000       2.52731323E-01
4068.6001       2.60743141E-01
4070.0000       2.64627457E-01
4071.3999       2.71425247E-01
4072.8000       2.74580956E-01
4074.2000       2.66812325E-01
4075.6001       2.56615639E-01
4077.0000       2.50788689E-01
4078.3999       2.44719505E-01
4079.8000       2.47632980E-01
4081.2000       2.64384270E-01
4082.6001       2.78708458E-01
4084.0000       2.78708458E-01
4085.3999       2.68754959E-01
4086.8000       2.73366928E-01
4088.2000       2.86477089E-01
4089.6001       2.86234856E-01
4091.0000       2.81864166E-01
4092.3999       2.81621933E-01
4093.8000       2.78223038E-01
4095.2000       2.68511772E-01
4096.6001       2.64869690E-01
4098.0000       2.62928009E-01
4099.3999       2.60014534E-01
4100.7998       2.69482613E-01
4102.2002       2.69482613E-01
4103.6001       2.64384270E-01
4105.0000       2.68268585E-01
4106.3999       2.76523590E-01
4107.7998       2.86477089E-01
4109.2002       2.90604591E-01
4110.6001       2.76523590E-01
4112.0000       2.62442589E-01
4113.3999       2.59771347E-01
4114.7998       2.65598297E-01
4116.2002       2.72396088E-01
4117.6001       2.75066376E-01
4119.0000       2.78465271E-01
4120.3999       2.80164719E-01
4121.7998       2.83563614E-01
4123.2002       2.92060852E-01
4124.6001       2.94488907E-01
4126.0000       2.91818619E-01
4127.3999       2.79922485E-01
4128.7998       2.68268585E-01
4130.2002       2.66326904E-01
4131.6001       2.68997192E-01
4133.0000       2.68997192E-01
4134.3999       2.70696640E-01
4135.7998       2.77979851E-01
4137.2002       2.81378746E-01
4138.6001       2.78223038E-01
4140.0000       2.70211220E-01
4141.3999       2.71667480E-01
4142.7998       2.75794983E-01
4144.2002       2.85991669E-01
4145.6001       3.10754776E-01
4147.0000       3.19009781E-01
4148.3999       3.14882278E-01
4149.7998       3.09783936E-01
4151.2002       3.11968803E-01
4152.6001       3.01043510E-01
4154.0000       3.02015305E-01
4155.3999       3.06628227E-01
4156.7998       3.19495201E-01
4158.2002       3.21923256E-01
4159.6001       3.19737434E-01
4161.0000       3.13182831E-01
4162.3999       3.03956985E-01
4163.7998       2.96916962E-01
4165.2002       2.96916962E-01
4166.6001       2.90361404E-01
4168.0000       2.89148331E-01
4169.3999       3.03229332E-01
4170.7998       2.89390564E-01
4172.2002       2.67540932E-01
4173.6001       2.59771347E-01
4175.0000       2.78951645E-01
4176.3999       2.97402382E-01
4177.7998       3.06870461E-01
4179.2002       3.10027122E-01
4180.6001       2.88419724E-01
4182.0000       2.81864166E-01
4183.3999       2.82592773E-01
4184.7998       2.89875984E-01
4186.2002       2.93274879E-01
4187.6001       2.90361404E-01
4189.0000       2.84292221E-01
4190.3999       2.82107353E-01
4191.7998       2.89390564E-01
4193.2002       3.02500725E-01
4194.6001       3.07355881E-01
4196.0000       2.94732094E-01
4197.3999       2.79437065E-01
4198.7998       2.74338722E-01
4200.2002       2.63656616E-01
4201.6001       2.52973557E-01
4203.0000       2.61713982E-01
4204.3999       2.65356064E-01
4205.7998       2.63170242E-01
4207.2002       2.53459930E-01
4208.6001       2.47876167E-01
4210.0000       2.36173630E-01
4211.3999       2.31172562E-01
4212.7998       2.31973648E-01
4214.2002       2.28672028E-01
4215.6001       2.02548981E-01
4217.0000       1.86113358E-01
4218.3999       1.73124313E-01
4219.7998       1.63146019E-01
4221.2002       1.37581825E-01
4222.6001       1.10682487E-01
4224.0000       8.56275558E-02
4225.3999       6.30979538E-02
4226.7998       5.19056320E-02
4228.2002       6.25152588E-02
4229.6001       8.69388580E-02
4231.0000       1.19009018E-01
4232.3999       1.34085655E-01
4233.7998       1.48142815E-01
4235.2002       1.67394638E-01
4236.6001       1.90216064E-01
4238.0000       2.01966286E-01
4239.3999       1.92886353E-01
4240.7998       1.83855057E-01
4242.2002       1.85142517E-01
4243.6001       1.98081970E-01
4245.0000       2.11944580E-01
4246.3999       2.17019081E-01
4247.7998       2.15756416E-01
4249.2002       2.15659142E-01
4250.6001       2.08982468E-01
4252.0000       1.99247360E-01
4253.3999       1.92303658E-01
4254.7998       1.92255020E-01
4256.2002       2.05025673E-01
4257.6001       2.12599754E-01
4259.0000       2.11289406E-01
4260.3999       2.09079742E-01
4261.7998       2.21242905E-01
4263.2002       2.36537933E-01
4264.6001       2.44234085E-01
4266.0000       2.43748665E-01
4267.3999       2.58315086E-01
4268.7998       2.54673004E-01
4270.2002       2.32022285E-01
4271.6001       2.09589958E-01
4273.0000       1.97329521E-01
4274.3999       1.98980331E-01
4275.7998       2.11798668E-01
4277.2002       2.33236313E-01
4278.6001       2.54673004E-01
4280.0000       2.59771347E-01
4281.3999       2.59529114E-01
4282.7998       2.65356064E-01
4284.2002       2.72396088E-01
4285.6001       2.68754959E-01
4287.0000       2.46418953E-01
4288.3999       2.19252586E-01
4289.7998       2.04418182E-01
4291.2002       2.15877533E-01
4292.6001       2.49574661E-01
4294.0000       2.68268585E-01
4295.3999       2.56858826E-01
4296.7998       2.46176720E-01
4298.2002       2.46418953E-01
4299.6001       2.45933533E-01
4301.0000       2.42777824E-01
4302.3999       2.44477272E-01
4303.7998       2.61228561E-01
4305.2002       2.68754959E-01
4306.6001       2.58558273E-01
4308.0000       2.45690346E-01
4309.3999       2.55401611E-01
4310.7998       2.87448883E-01
4312.2002       3.08084488E-01
4313.6001       3.04685593E-01
4315.0000       2.90119171E-01
4316.3999       2.86962509E-01
4317.7998       2.93760300E-01
4319.2002       3.00801277E-01
4320.6001       3.07113647E-01
4322.0000       3.09540749E-01
4323.3999       3.10269356E-01
4324.7998       3.07113647E-01
4326.2002       3.01043510E-01
4327.6001       3.13426018E-01
4329.0000       3.37703705E-01
4330.3999       3.48628044E-01
4331.7998       3.44015121E-01
4333.2002       3.45714569E-01
4334.6001       3.48628044E-01
4336.0000       3.36246490E-01
4337.3999       3.22894096E-01
4338.7998       3.20709229E-01
4340.2002       3.32118988E-01
4341.6001       3.46443176E-01
4343.0000       3.55425835E-01
4344.3999       3.61252785E-01
4345.7998       3.67565155E-01
4347.2002       3.68050575E-01
4348.6001       3.64408493E-01
4350.0000       3.51299286E-01
4351.3999       3.24835777E-01
4352.7998       3.01772118E-01
4354.2002       2.96188354E-01
4355.6001       3.07599068E-01
4357.0000       3.19495201E-01
4358.3999       3.15367699E-01
4359.7998       3.10027122E-01
4361.2002       3.13426018E-01
4362.6001       3.12697411E-01
4364.0000       3.12454224E-01
4365.3999       3.19980621E-01
4366.7998       3.29691887E-01
4368.2002       3.49842072E-01
4369.6001       3.67321968E-01
4371.0000       3.62952232E-01
4372.3999       3.45957756E-01
4373.7998       3.47414017E-01
4375.2002       3.54698181E-01
4376.6001       3.52998734E-01
4378.0000       3.52998734E-01
4379.3999       3.44986916E-01
4380.7998       3.28720093E-01
4382.2002       3.10754776E-01
4383.6001       2.96431541E-01
4385.0000       3.13911438E-01
4386.3999       3.32362175E-01
4387.7998       3.41588020E-01
4389.2002       3.47657204E-01
4390.6001       3.66594315E-01
4392.0000       3.87958527E-01
4393.3999       3.85773659E-01
4394.7998       3.71934891E-01
4396.2002       3.81888390E-01
4397.6001       3.89172554E-01
4399.0000       3.92571449E-01
4400.3999       3.88929367E-01
4401.7998       3.73391151E-01
4403.2002       3.57125282E-01
4404.6001       3.43529701E-01
4406.0000       3.41588020E-01
4407.3999       3.61738205E-01
4408.7998       3.81402969E-01
4410.2002       4.05680656E-01
4411.6001       4.10293579E-01
4413.0000       3.99611473E-01
4414.3999       4.00340080E-01
4415.7998       4.19276237E-01
4417.2002       4.31172371E-01
4418.6001       4.35299873E-01
4420.0000       4.25346375E-01
4421.3999       4.12721634E-01
4422.7998       4.00340080E-01
4424.2002       3.89657974E-01
4425.6001       3.82131577E-01
4427.0000       3.89172554E-01
4428.3999       4.13935661E-01
4429.7998       4.47681427E-01
4431.2002       4.55207825E-01
4432.6001       4.31657791E-01
4434.0000       3.86501312E-01
4435.3999       3.69021416E-01
4436.7998       3.88686180E-01
4438.2002       4.27773476E-01
4439.6001       4.55207825E-01
4441.0000       4.61520195E-01
4442.3999       4.64675903E-01
4443.7998       4.58848953E-01
4445.2002       4.58848953E-01
4446.6001       4.84340668E-01
4448.0000       4.93081093E-01
4449.3999       4.98907089E-01
4450.7998       4.99393463E-01
4452.2002       4.61277008E-01
4453.6001       3.88686180E-01
4455.0000       3.68535995E-01
4456.3999       3.92813683E-01
4457.7998       4.35543060E-01
4459.2002       4.64675903E-01
4460.6001       4.53993797E-01
4462.0000       4.61520195E-01
4463.3999       4.73173141E-01
4464.7998       4.76815224E-01
4466.2002       4.77057457E-01
4467.6001       4.88468170E-01
4469.0000       4.97694016E-01
4470.3999       5.02792358E-01
4471.7998       5.14202118E-01
4473.2002       5.09103775E-01
4474.6001       5.25612831E-01
4476.0000       5.35809517E-01
4477.3999       5.33624649E-01
4478.7998       5.48919678E-01
4480.2002       5.42850494E-01
4481.6001       5.27797699E-01
4483.0000       5.22213936E-01
4484.3999       5.28040886E-01
4485.7998       5.35809517E-01
4487.2002       5.38966179E-01
4488.6001       5.28769493E-01
4490.0000       5.35809517E-01
4491.3999       5.38237572E-01
4492.7998       5.32653809E-01
4494.2002       5.35324097E-01
4495.6001       5.41393280E-01
4497.0000       5.53289413E-01
4498.3999       5.65185547E-01
4499.7998       5.62515259E-01
4501.2002       5.63486099E-01
4502.6001       5.66399574E-01
4504.0000       5.69555283E-01
4505.3999       5.46977043E-01
4506.7998       5.14930725E-01
4508.2002       5.25127411E-01
4509.6001       5.38479805E-01
4511.0000       5.25612831E-01
4512.3999       5.17358780E-01
4513.7998       5.35567284E-01
4515.2002       5.49405098E-01
4516.6001       5.55717468E-01
4518.0000       5.70527077E-01
4519.3999       5.89948654E-01
4520.7998       5.81937790E-01
4522.2002       5.82180023E-01
4523.6001       5.83150864E-01
4525.0000       5.67370415E-01
4526.3999       5.25856018E-01
4527.7998       5.13959885E-01
4529.2002       5.33867836E-01
4530.6001       5.40179253E-01
4532.0000       5.27070045E-01
4533.3999       5.16144753E-01
4534.7998       5.31682968E-01
4536.2002       5.70041656E-01
4537.6001       6.16654396E-01
4539.0000       6.48943901E-01
4540.3999       6.65452957E-01
4541.7998       6.60840034E-01
4543.2002       6.41902924E-01
4544.6001       6.16412163E-01
4546.0000       5.92619896E-01
4547.3999       5.87521553E-01
4548.7998       5.79751968E-01
4550.2002       5.66642761E-01
4551.6001       5.63000679E-01
4553.0000       5.65914154E-01
4554.3999       5.81937790E-01
4555.7998       5.99903107E-01
4557.2002       6.32678032E-01
4558.6001       6.66909218E-01
4560.0000       6.73221588E-01
4561.3999       6.63024902E-01
4562.7998       6.72250748E-01
4564.2002       7.14736938E-01
4565.6001       7.46540070E-01
4567.0000       7.48968124E-01
4568.3999       7.34643936E-01
4569.7998       7.10366249E-01
4571.2002       7.12308884E-01
4572.6001       7.36829758E-01
4574.0000       7.49211311E-01
4575.3999       7.38771439E-01
4576.7998       7.16921806E-01
4578.2002       7.14979172E-01
4579.6001       7.20562935E-01
4581.0000       7.10124016E-01
4582.3999       6.70308113E-01
4583.7998       6.09614372E-01
4585.2002       5.74168205E-01
4586.6001       5.74896812E-01
4588.0000       5.97960472E-01
4589.3999       6.22238159E-01
4590.7998       6.09856606E-01
4592.2002       5.93833923E-01
4593.6001       6.05972290E-01
4595.0000       6.22481346E-01
4596.3999       6.42874718E-01
4597.7998       6.46273613E-01
4599.2002       6.41417503E-01
4600.6001       6.49672508E-01
4602.0000       6.54527664E-01
4603.3999       6.61810875E-01
4604.7998       6.50157928E-01
4606.2002       6.37047768E-01
4607.6001       6.79290771E-01
4609.0000       7.31002808E-01
4610.3999       7.46540070E-01
4611.7998       7.38042831E-01
4613.2002       7.27603912E-01
4614.6001       7.36343384E-01
4616.0000       7.61349678E-01
4617.3999       7.93153763E-01
4618.7998       7.97523499E-01
4620.2002       7.88298607E-01
4621.6001       7.77130127E-01
4623.0000       7.50182152E-01
4624.3999       6.89730644E-01
4625.7998       6.26851082E-01
4627.2002       5.84122658E-01
4628.6001       5.72954178E-01
4630.0000       5.88492393E-01
4631.3999       6.19082451E-01
4632.7998       6.17868423E-01
4634.2002       5.96504211E-01
4635.6001       5.75139999E-01
4637.0000       5.98689079E-01
4638.3999       6.26851082E-01
4639.7998       6.48700714E-01
4641.2002       6.61325455E-01
4642.6001       6.56470299E-01
4644.0000       6.45545006E-01
4645.3999       6.32192612E-01
4646.7998       6.22966766E-01
4648.2002       6.20781898E-01
4649.6001       6.21267319E-01
4651.0000       6.15198135E-01
4652.3999       6.33163452E-01
4653.7998       6.45301819E-01
4655.2002       6.61083221E-01
4656.6001       6.80747986E-01
4658.0000       7.10851669E-01
4659.3999       7.31973648E-01
4660.7998       7.33673096E-01
4662.2002       7.27846146E-01
4663.6001       7.15464592E-01
4665.0000       6.86331749E-01
4666.3999       6.60840034E-01
4667.7998       6.11556053E-01
4669.2002       5.93105316E-01
4670.6001       5.55717468E-01
4672.0000       5.37266731E-01
4673.3999       5.44306755E-01
4674.7998       5.62029839E-01
4676.2002       5.87036133E-01
4677.6001       6.05001450E-01
4679.0000       6.01117134E-01
4680.3999       5.76353073E-01
4681.7998       5.72226524E-01
4683.2002       5.91162682E-01
4684.6001       6.13740921E-01
4686.0000       6.21024132E-01
4687.3999       6.21024132E-01
4688.7998       6.36076927E-01
4690.2002       6.47244453E-01
4691.6001       6.53071404E-01
4693.0000       6.53071404E-01
4694.3999       6.58411980E-01
4695.7998       6.67881012E-01
4697.2002       6.71522141E-01
4698.6001       6.43845558E-01
4700.0000       6.69094086E-01
4701.3999       7.00412750E-01
4702.7998       6.87545776E-01
4704.2002       6.73221588E-01
4705.6001       6.89245224E-01
4707.0000       6.95071220E-01
4708.3999       7.05267906E-01
4709.7998       7.25661278E-01
4711.2002       7.20806122E-01
4712.6001       7.09880829E-01
4714.0000       6.60840034E-01
4715.3999       6.25880241E-01
4716.7998       6.26365662E-01
4718.2002       6.33892059E-01
4719.6001       6.41902924E-01
4721.0000       6.46759033E-01
4722.3999       6.68366432E-01
4723.7998       7.01383591E-01
4725.2002       7.23476410E-01
4726.6001       7.29788780E-01
4728.0000       7.02597618E-01
4729.3999       6.84146881E-01
4730.7998       6.99927330E-01
4732.2002       7.07210541E-01
4733.6001       7.09153175E-01
4735.0000       6.99198723E-01
4736.3999       6.93614960E-01
4737.7998       7.05754280E-01
4739.2002       7.27846146E-01
4740.6001       7.40470886E-01
4742.0000       7.38286018E-01
4743.3999       7.41441727E-01
4744.7998       7.56736755E-01
4746.2002       7.85385132E-01
4747.6001       7.92182922E-01
4749.0000       7.89269447E-01
4750.3999       7.79072762E-01
4751.7998       7.39985466E-01
4753.2002       7.39256859E-01
4754.6001       7.59893417E-01
4756.0000       7.52124786E-01
4757.3999       7.25661278E-01
4758.7998       6.95071220E-01
4760.2002       6.08157158E-01
4761.6001       5.37023544E-01
4763.0000       5.01578331E-01
4764.3999       4.90167618E-01
4765.7998       4.85069275E-01
4767.2002       4.87010956E-01
4768.6001       5.04491806E-01
4770.0000       4.95265961E-01
4771.3999       4.77300644E-01
4772.7998       4.85311508E-01
4774.2002       4.96479988E-01
4775.6001       4.97936249E-01
4777.0000       5.03763199E-01
4778.3999       4.97936249E-01
4779.7998       4.78271484E-01
4781.2002       4.81427193E-01
4782.6001       5.14202118E-01
4784.0000       5.55474281E-01
4785.3999       5.79751968E-01
4786.7998       5.86792946E-01
4788.2002       5.82180023E-01
4789.6001       6.00388527E-01
4791.0000       6.31220818E-01
4792.3999       6.36804581E-01
4793.7998       6.25151634E-01
4795.2002       6.27579689E-01
4796.6001       6.47487640E-01
4798.0000       6.54527664E-01
4799.3999       6.41660690E-01
4800.7998       6.26365662E-01
4802.2002       6.02330208E-01
4803.6001       5.65185547E-01
4805.0000       5.35809517E-01
4806.3999       5.15901566E-01
4807.7998       5.09103775E-01
4809.2002       5.13231277E-01
4810.6001       5.15901566E-01
4812.0000       5.32168388E-01
4813.3999       5.54988861E-01
4814.7998       5.67128181E-01
4816.2002       5.74653625E-01
4817.6001       5.66884995E-01
4819.0000       5.76110840E-01
4820.3999       6.01117134E-01
4821.7998       6.08157158E-01
4823.2002       6.09856606E-01
4824.6001       6.26365662E-01
4826.0000       6.55498505E-01
4827.3999       6.47973061E-01
4828.7998       6.22723579E-01
4830.2002       6.24909401E-01
4831.6001       6.54285431E-01
4833.0000       6.54285431E-01
4834.3999       6.64967537E-01
4835.7998       6.89972878E-01
4837.2002       7.08424568E-01
4838.6001       7.01383591E-01
4840.0000       6.54770851E-01
4841.3999       6.10585213E-01
4842.7998       6.11556053E-01
4844.2002       6.13984108E-01
4845.6001       6.01602554E-01
4847.0000       5.85093498E-01
4848.3999       5.64700127E-01
4849.7998       5.49405098E-01
4851.2002       5.56446075E-01
4852.6001       5.56202888E-01
4854.0000       5.59358597E-01
4855.3999       5.82908630E-01
4856.7998       6.09856606E-01
4858.2002       6.20296478E-01
4859.6001       6.16168976E-01
4861.0000       6.13984108E-01
4862.3999       6.18353844E-01
4863.7998       6.19811058E-01
4865.2002       6.16412163E-01
4866.6001       6.04758263E-01
4868.0000       5.95775604E-01
4869.3999       6.03787422E-01
4870.7998       6.22481346E-01
4872.2002       6.41175270E-01
4873.6001       6.50886536E-01
4875.0000       6.61810875E-01
4876.3999       6.67152405E-01
4877.7998       6.55013084E-01
4879.2002       6.58169746E-01
4880.6001       6.89245224E-01
4882.0000       7.06725121E-01
4883.3999       6.93858147E-01
4884.7998       6.88759804E-01
4886.2002       7.04782486E-01
4887.6001       7.15464592E-01
4889.0000       7.26146698E-01
4890.3999       7.30517387E-01
4891.7998       7.15707779E-01
4893.2002       7.15950012E-01
4894.6001       7.21048355E-01
4896.0000       7.28817940E-01
4897.3999       7.45326996E-01
4898.7998       7.47511864E-01
4900.2002       7.57465363E-01
4901.6001       7.77130127E-01
4903.0000       7.91939735E-01
4904.3999       8.17916870E-01
4905.7998       8.48750114E-01
4907.2002       8.54576111E-01
4908.6001       8.66230011E-01
4910.0000       8.82738113E-01
4911.3999       9.02889252E-01
4912.7998       8.90022278E-01
4914.2002       8.59189034E-01
4915.6001       8.64287376E-01
4917.0000       8.92692566E-01
4918.3999       8.72784615E-01
4919.7998       8.59917641E-01
4921.2002       8.72784615E-01
4922.6001       8.89293671E-01
4924.0000       9.03131485E-01
4925.3999       9.24496651E-01
4926.7998       9.50473785E-01
4928.2002       9.88347054E-01
4929.6001       9.97815132E-01
4931.0000       9.79606628E-01
4932.3999       9.51201439E-01
4933.7998       9.44403648E-01
4935.2002       9.55085754E-01
4936.6001       9.72080231E-01
4938.0000       9.66496468E-01
4939.3999       9.58484650E-01
4940.7998       9.71352577E-01
4942.2002       9.99756813E-01
4943.6001       1.02282143E+00
4945.0000       1.03228951E+00
4946.3999       1.03471756E+00
4947.7998       1.04102898E+00
4949.2002       1.06142235E+00
4950.6001       1.09613991E+00
4952.0000       1.07793140E+00
4953.3999       9.58727837E-01
4954.7998       7.79558182E-01
4956.2002       6.06215477E-01
4957.6001       5.13959885E-01
4959.0000       5.03520012E-01
4960.3999       5.19300461E-01
4961.7998       5.22942543E-01
4963.2002       5.29740334E-01
4964.6001       5.53532600E-01
4966.0000       5.78781128E-01
4967.3999       5.86064339E-01
4968.7998       6.11799240E-01
4970.2002       6.43360138E-01
4971.6001       6.71036720E-01
4973.0000       6.88031197E-01
4974.3999       6.94343567E-01
4975.7998       7.05025673E-01
4977.2002       7.20562935E-01
4978.6001       7.07695961E-01
4980.0000       6.95071220E-01
4981.3999       6.74921036E-01
4982.7998       6.67394638E-01
4984.2002       7.06239700E-01
4985.6001       7.53337860E-01
4987.0000       7.69846916E-01
4988.3999       7.70575523E-01
4989.7998       7.63777733E-01
4991.2002       7.56979942E-01
4992.6001       7.64020920E-01
4994.0000       7.68632889E-01
4995.3999       7.75430679E-01
4996.7998       7.67905235E-01
4998.2002       7.32702255E-01
4999.6001       6.74678802E-01
5001.0000       6.49914742E-01
5002.3999       6.57197952E-01
5003.7998       6.51371956E-01
5005.2002       6.27094269E-01
5006.6001       6.09856606E-01
5008.0000       6.03058815E-01
5009.3999       6.14712715E-01
5010.7998       6.34619713E-01
5012.2002       6.41175270E-01
5013.6001       6.26607895E-01
5015.0000       6.08642578E-01
5016.3999       6.20781898E-01
5017.7998       6.57441139E-01
5019.2002       6.87060356E-01
5020.6001       6.88759804E-01
5022.0000       6.64482117E-01
5023.3999       6.52099609E-01
5024.7998       6.66666985E-01
5026.2002       6.79290771E-01
5027.6001       6.91186905E-01
5029.0000       7.07210541E-01
5030.3999       7.16921806E-01
5031.7998       7.26146698E-01
5033.2002       7.25904465E-01
5034.6001       7.31002808E-01
5036.0000       7.34643936E-01
5037.3999       7.40956306E-01
5038.7998       7.49453545E-01
5040.2002       7.33916283E-01
5041.6001       7.40956306E-01
5043.0000       7.75430679E-01
5044.3999       7.99222946E-01
5045.7998       8.12818527E-01
5047.2002       8.38553429E-01
5048.6001       8.29813004E-01
5050.0000       7.82713890E-01
5051.3999       7.78101921E-01
5052.7998       7.76402473E-01
5054.2002       7.62563705E-01
5055.6001       7.60135651E-01
5057.0000       7.72517204E-01
5058.3999       7.96309471E-01
5059.7998       8.14517975E-01
5061.2002       8.06263924E-01
5062.6001       7.75430679E-01
5064.0000       7.76402473E-01
5065.3999       7.88784027E-01
5066.7998       7.90483475E-01
5068.2002       7.96067238E-01
5069.6001       8.04079056E-01
5071.0000       8.10633659E-01
5072.3999       8.25928688E-01
5073.7998       8.37096214E-01
5075.2002       8.23500633E-01
5076.6001       8.11604500E-01
5078.0000       8.18887711E-01
5079.3999       8.10876846E-01
5080.7998       7.82228470E-01
5082.2002       7.57465363E-01
5083.6001       7.70090103E-01
5085.0000       8.07234764E-01
5086.3999       8.31512451E-01
5087.7998       8.37096214E-01
5089.2002       8.21558952E-01
5090.6001       8.15732002E-01
5092.0000       8.42194557E-01
5093.3999       8.57732773E-01
5094.7998       8.37096214E-01
5096.2002       8.15003395E-01
5097.6001       8.21558952E-01
5099.0000       8.28598976E-01
5100.3999       8.06991577E-01
5101.7998       7.82228470E-01
5103.2002       7.69361496E-01
5104.6001       7.64506340E-01
5106.0000       7.75430679E-01
5107.3999       7.89997101E-01
5108.7998       8.12576294E-01
5110.2002       8.33211899E-01
5111.6001       8.40495110E-01
5113.0000       8.53605270E-01
5114.3999       8.74969482E-01
5115.7998       8.83466721E-01
5117.2002       8.83709908E-01
5118.6001       8.67443085E-01
5120.0000       8.52634430E-01
5121.3999       8.52876663E-01
5122.7998       8.46807480E-01
5124.2002       8.05049896E-01
5125.6001       7.77615547E-01
5127.0000       7.88298607E-01
5128.3999       7.95824051E-01
5129.7998       8.13303947E-01
5131.2002       8.82010460E-01
5132.6001       9.23039436E-01
5134.0000       9.28623199E-01
5135.3999       9.33479309E-01
5136.7998       9.55572128E-01
5138.2002       9.22068596E-01
5139.6001       8.88808250E-01
5141.0000       8.99975777E-01
5142.3999       9.09929276E-01
5143.7998       8.82010460E-01
5145.2002       8.72299194E-01
5146.6001       8.99247169E-01
5148.0000       9.15027618E-01
5149.3999       8.95848274E-01
5150.7998       8.60888481E-01
5152.2002       8.04806709E-01
5153.6001       7.86112785E-01
5155.0000       8.45108032E-01
5156.3999       9.25952911E-01
5157.7998       9.80820656E-01
5159.2002       1.01189613E+00
5160.6001       1.01917934E+00
5162.0000       1.00946808E+00
5163.3999       9.76693153E-01
5164.7998       8.74484062E-01
5166.2002       7.02355385E-01
5167.6001       5.43578148E-01
5169.0000       4.63219643E-01
5170.3999       4.39912796E-01
5171.7998       4.49866295E-01
5173.2002       4.76328850E-01
5174.6001       4.97694016E-01
5176.0000       5.01578331E-01
5177.3999       5.04248619E-01
5178.7998       5.03763199E-01
5180.2002       5.03520012E-01
5181.6001       5.15659332E-01
5183.0000       5.58630943E-01
5184.3999       6.26851082E-01
5185.7998       6.80990219E-01
5187.2002       7.20320702E-01
5188.6001       7.33430862E-01
5190.0000       7.22505569E-01
5191.3999       7.19348907E-01
5192.7998       7.21776962E-01
5194.2002       7.42898941E-01
5195.6001       7.98252106E-01
5197.0000       8.27384949E-01
5198.3999       8.11119080E-01
5199.7998       7.81986237E-01
5201.2002       7.60378838E-01
5202.6001       7.03811646E-01
5204.0000       6.45545006E-01
5205.3999       6.08400345E-01
5206.7998       5.93590736E-01
5208.2002       6.05243683E-01
5209.6001       6.54042244E-01
5211.0000       7.62320518E-01
5212.3999       8.85166168E-01
5213.7998       9.51686859E-01
5215.2002       9.66011047E-01
5216.6001       9.92959976E-01
5218.0000       1.03204632E+00
5219.3999       1.04806995E+00
5220.7998       1.04928398E+00
5222.2002       1.02622032E+00
5223.6001       9.96601105E-01
5225.0000       9.78878021E-01
5226.3999       9.95144844E-01
5227.7998       1.05025482E+00
5229.2002       1.08230114E+00
5230.6001       1.08885670E+00
5232.0000       1.09444046E+00
5233.3999       1.09201241E+00
5234.7998       1.09031296E+00
5236.2002       1.10245228E+00
5237.6001       1.10585117E+00
5239.0000       1.06118011E+00
5240.3999       1.00631237E+00
5241.7998       9.81063843E-01
5243.2002       9.84462738E-01
5244.6001       9.99514580E-01
5246.0000       9.97086525E-01
5247.3999       9.84948158E-01
5248.7998       9.87618446E-01
5250.2002       9.97815132E-01
5251.6001       1.01650906E+00
5253.0000       1.03253174E+00
5254.3999       1.05074024E+00
5255.7998       1.06360817E+00
5257.2002       1.06894875E+00
5258.6001       1.05292511E+00
5260.0000       1.01165390E+00
5261.3999       9.67468262E-01
5262.7998       9.34935570E-01
5264.2002       8.97547722E-01
5265.6001       8.89535904E-01
5267.0000       8.78126144E-01
5268.3999       8.64772797E-01
5269.7998       8.59432220E-01
5271.2002       9.35420990E-01
5272.6001       1.01116753E+00
5274.0000       1.06215096E+00
5275.3999       1.09249783E+00
5276.7998       1.10463715E+00
5278.2002       1.09079838E+00
5279.6001       1.07064819E+00
5281.0000       1.06190872E+00
5282.3999       1.07453251E+00
5283.7998       1.11556244E+00
5285.2002       1.15901947E+00
5286.6001       1.17212868E+00
5288.0000       1.16751671E+00
5289.3999       1.15683460E+00
5290.7998       1.15926170E+00
5292.2002       1.18038368E+00
5293.6001       1.19422150E+00
5295.0000       1.16775894E+00
5296.3999       1.11896133E+00
5297.7998       1.09444046E+00
5299.2002       1.11531925E+00
5300.6001       1.16533089E+00
5302.0000       1.20320511E+00
5303.3999       1.22578335E+00
5304.7998       1.22821045E+00
5306.2002       1.20223331E+00
5307.6001       1.15707684E+00
5309.0000       1.11774731E+00
5310.3999       1.12648678E+00
5311.7998       1.14372444E+00
5313.2002       1.14251041E+00
5314.6001       1.15100765E+00
5316.0000       1.17334270E+00
5317.3999       1.16508865E+00
5318.7998       1.14663792E+00
5320.2002       1.14857960E+00
5321.6001       1.16411781E+00
5323.0000       1.16290379E+00
5324.3999       1.14930820E+00
5325.7998       1.09249783E+00
5327.2002       1.02524853E+00
5328.6001       1.02379227E+00
5330.0000       1.07817459E+00
5331.3999       1.12333107E+00
5332.7998       1.12648678E+00
5334.2002       1.13838291E+00
5335.6001       1.15295029E+00
5337.0000       1.14129639E+00
5338.3999       1.12891483E+00
5339.7998       1.14323902E+00
5341.2002       1.16144657E+00
5342.6001       1.16775894E+00
5344.0000       1.17334270E+00
5345.3999       1.16411781E+00
5346.7998       1.16071892E+00
5348.2002       1.17552757E+00
5349.6001       1.21170235E+00
5351.0000       1.25006104E+00
5352.3999       1.28356361E+00
5353.7998       1.30735588E+00
5355.2002       1.31269741E+00
5356.6001       1.27919388E+00
5358.0000       1.21655750E+00
5359.3999       1.18985176E+00
5360.7998       1.20101929E+00
5362.2002       1.20660400E+00
5363.6001       1.20126247E+00
5365.0000       1.19058037E+00
5366.3999       1.19883442E+00
5367.7998       1.20927429E+00
5369.2002       1.17577076E+00
5370.6001       1.14348125E+00
5372.0000       1.16703129E+00
5373.3999       1.21364403E+00
5374.7998       1.26414204E+00
5376.2002       1.30954170E+00
5377.6001       1.33697510E+00
5379.0000       1.36805058E+00
5380.3999       1.39572716E+00
5381.7998       1.38990021E+00
5383.2002       1.36513710E+00
5384.6001       1.36853600E+00
5386.0000       1.38213158E+00
5387.3999       1.37266350E+00
5388.7998       1.33648968E+00
5390.2002       1.30687046E+00
5391.6001       1.30104446E+00
5393.0000       1.30492878E+00
5394.3999       1.28186417E+00
5395.7998       1.23889351E+00
5397.2002       1.25297451E+00
5398.6001       1.33017731E+00
5400.0000       1.40738010E+00
5401.3999       1.41102219E+00
5402.7998       1.36028194E+00
5404.2002       1.30055809E+00
5405.6001       1.28793430E+00
5407.0000       1.29594612E+00
5408.3999       1.27385330E+00
5409.7998       1.27069664E+00
5411.2002       1.30808449E+00
5412.6001       1.37703323E+00
5414.0000       1.40155411E+00
5415.3999       1.39766979E+00
5416.7998       1.40738010E+00
5418.2002       1.43578529E+00
5419.6001       1.47317314E+00
5421.0000       1.48021317E+00
5422.3999       1.45180893E+00
5423.7998       1.44355392E+00
5425.2002       1.43627071E+00
5426.6001       1.41563511E+00
5428.0000       1.37144947E+00
5429.3999       1.32872009E+00
5430.7998       1.31512451E+00
5432.2002       1.30371475E+00
5433.6001       1.30468559E+00
5435.0000       1.35494041E+00
5436.3999       1.41587734E+00
5437.7998       1.44743919E+00
5439.2002       1.48191357E+00
5440.6001       1.53338242E+00
5442.0000       1.55668831E+00
5443.3999       1.50570488E+00
5444.7998       1.39426994E+00
5446.2002       1.25151730E+00
5447.6001       1.08497238E+00
5449.0000       9.51930046E-01
5450.3999       8.98276329E-01
5451.7998       8.80067825E-01
5453.2002       8.57247353E-01
5454.6001       8.41709137E-01
5456.0000       8.51420403E-01
5457.3999       8.71085167E-01
5458.7998       8.99732590E-01
5460.2002       9.33721542E-01
5461.6001       9.69895363E-01
5463.0000       9.91017342E-01
5464.3999       9.97571945E-01
5465.7998       1.00971127E+00
5467.2002       1.02937603E+00
5468.6001       1.03107548E+00
5470.0000       1.03131866E+00
5471.3999       1.03326035E+00
5472.7998       1.04321480E+00
5474.2002       1.05656719E+00
5475.6001       1.06069469E+00
5477.0000       1.05074024E+00
5478.3999       1.05705261E+00
5479.7998       1.06554985E+00
5481.2002       1.07647514E+00
5482.6001       1.10755062E+00
5484.0000       1.13207054E+00
5485.3999       1.11434841E+00
5486.7998       1.10487938E+00
5488.2002       1.11726189E+00
5489.6001       1.13595581E+00
5491.0000       1.16047573E+00
5492.3999       1.16970158E+00
5493.7998       1.16120434E+00
5495.2002       1.13328457E+00
5496.6001       1.08157349E+00
5498.0000       1.01311016E+00
5499.3999       9.45860863E-01
5500.7998       9.34206963E-01
5502.2002       9.41004753E-01
5503.6001       9.27166939E-01
5505.0000       9.10415649E-01
5506.3999       9.12357330E-01
5507.7998       9.32265282E-01
5509.2002       9.41976547E-01
5510.6001       9.27652359E-01
5512.0000       9.02646065E-01
5513.3999       8.98761749E-01
5514.7998       9.19883728E-01
5516.2002       9.40519333E-01
5517.6001       9.57028389E-01
5519.0000       9.79121208E-01
5520.3999       9.97329712E-01
5521.7998       9.87133026E-01
5523.2002       9.62126732E-01
5524.6001       9.46103096E-01
5526.0000       9.44403648E-01
5527.3999       9.46346283E-01
5528.7998       9.54843521E-01
5530.2002       9.69409943E-01
5531.6001       9.71837997E-01
5533.0000       9.43432808E-01
5534.3999       9.10172462E-01
5535.7998       8.95362854E-01
5537.2002       9.00946617E-01
5538.6001       8.88322830E-01
5540.0000       8.86865616E-01
5541.3999       8.92449379E-01
5542.7998       9.00704384E-01
5544.2002       9.08229828E-01
5545.6001       9.02889252E-01
5547.0000       9.10657883E-01
5548.3999       9.33721542E-01
5549.7998       9.53872681E-01
5551.2002       9.58484650E-01
5552.6001       9.68924522E-01
5554.0000       9.87133026E-01
5555.3999       1.00000000E+00
5556.7998       1.00558376E+00
5558.2002       1.01796532E+00
5559.6001       1.02767658E+00
5561.0000       1.02282143E+00
5562.3999       1.03228951E+00
5563.7998       1.04685593E+00
5565.2002       1.06166553E+00
5566.6001       1.06797791E+00
5568.0000       1.06190872E+00
5569.3999       1.07914543E+00
5570.7998       1.10609341E+00
5572.2002       1.11774731E+00
5573.6001       1.11337662E+00
5575.0000       1.11192036E+00
5576.3999       1.14129639E+00
5577.7998       1.17819881E+00
5579.2002       1.17310047E+00
5580.6001       1.15683460E+00
5582.0000       1.15950489E+00
5583.3999       1.16994381E+00
5584.7998       1.19130898E+00
5586.2002       1.19859219E+00
5587.6001       1.17382812E+00
5589.0000       1.14930820E+00
5590.3999       1.14251041E+00
5591.7998       1.14760876E+00
5593.2002       1.15634823E+00
5594.6001       1.15537739E+00
5596.0000       1.12964344E+00
5597.3999       1.05753803E+00
5598.7998       9.73537445E-01
5600.2002       9.50959206E-01
5601.6001       9.63826180E-01
5603.0000       9.74022865E-01
5604.3999       9.80092049E-01
5605.7998       9.88103867E-01
5607.2002       9.92473602E-01
5608.6001       9.98057365E-01
5610.0000       9.97571945E-01
5611.3999       1.02549171E+00
5612.7998       1.03107548E+00
5614.2002       1.02063560E+00
5615.6001       9.99514580E-01
5617.0000       9.71109390E-01
5618.3999       9.56299782E-01
5619.7998       9.59456444E-01
5621.2002       9.76936340E-01
5622.6001       9.86647606E-01
5624.0000       1.00971127E+00
5625.3999       1.03423119E+00
5626.7998       1.03471756E+00
5628.2002       1.02039337E+00
5629.6001       9.68439102E-01
5631.0000       9.32265282E-01
5632.3999       9.49987411E-01
5633.7998       9.94901657E-01
5635.2002       1.01578045E+00
5636.6001       1.00922585E+00
5638.0000       1.00606918E+00
5639.3999       1.00000000E+00
5640.7998       1.00752640E+00
5642.2002       1.01747990E+00
5643.6001       1.01359558E+00
5645.0000       1.01796532E+00
5646.3999       1.05511093E+00
5647.7998       1.08667183E+00
5649.2002       1.08521461E+00
5650.6001       1.08205891E+00
5652.0000       1.10779285E+00
5653.3999       1.14396667E+00
5654.7998       1.16605949E+00
5656.2002       1.17892647E+00
5657.6001       1.18863773E+00
5659.0000       1.19009495E+00
5660.3999       1.16241837E+00
5661.7998       1.10803604E+00
5663.2002       1.06336498E+00
5664.6001       1.03908730E+00
5666.0000       1.03568840E+00
5667.3999       1.04855537E+00
5668.7998       1.04637051E+00
5670.2002       1.02233505E+00
5671.6001       1.00655460E+00
5673.0000       1.03326035E+00
5674.3999       1.06554985E+00
5675.7998       1.07817459E+00
5677.2002       1.08885670E+00
5678.6001       1.10997772E+00
5680.0000       1.13474178E+00
5681.3999       1.13401318E+00
5682.7998       1.12818623E+00
5684.2002       1.15100765E+00
5685.6001       1.17504215E+00
5687.0000       1.16897297E+00
5688.3999       1.15343571E+00
5689.7998       1.16387463E+00
5691.2002       1.18256855E+00
5692.6001       1.19227982E+00
5694.0000       1.18815231E+00
5695.3999       1.17989826E+00
5696.7998       1.18912315E+00
5698.2002       1.21461487E+00
5699.6001       1.22796822E+00
5701.0000       1.21825695E+00
5702.3999       1.20757484E+00
5703.7998       1.21655750E+00
5705.2002       1.23719406E+00
5706.6001       1.26705551E+00
5708.0000       1.29109001E+00
5709.3999       1.30177212E+00
5710.7998       1.30541420E+00
5712.2002       1.30589962E+00
5713.6001       1.29109001E+00
5715.0000       1.26025772E+00
5716.3999       1.25297451E+00
5717.7998       1.25103188E+00
5719.2002       1.22796822E+00
5720.6001       1.21582890E+00
5722.0000       1.24957466E+00
5723.3999       1.28332138E+00
5724.7998       1.29545975E+00
5726.2002       1.30322933E+00
5727.6001       1.28162193E+00
5729.0000       1.27118206E+00
5730.3999       1.29691696E+00
5731.7998       1.31949520E+00
5733.2002       1.34280205E+00
5734.6001       1.35178471E+00
5736.0000       1.33891678E+00
5737.3999       1.31998062E+00
5738.7998       1.32240868E+00
5740.2002       1.33988857E+00
5741.6001       1.34061623E+00
5743.0000       1.33479023E+00
5744.3999       1.35445499E+00
5745.7998       1.37023544E+00
5747.2002       1.38892937E+00
5748.6001       1.42316055E+00
5750.0000       1.46346188E+00
5751.3999       1.47584343E+00
5752.7998       1.47390175E+00
5754.2002       1.48531151E+00
5755.6001       1.49550819E+00
5757.0000       1.46370506E+00
5758.3999       1.41223621E+00
5759.7998       1.34741402E+00
5761.2002       1.26608372E+00
5762.6001       1.21534348E+00
5764.0000       1.19276524E+00
5765.3999       1.19713497E+00
5766.7998       1.21121597E+00
5768.2002       1.23622227E+00
5769.6001       1.25831509E+00
5771.0000       1.26899719E+00
5772.3999       1.26147079E+00
5773.7998       1.26122856E+00
5775.2002       1.26147079E+00
5776.6001       1.26729774E+00
5778.0000       1.27530956E+00
5779.3999       1.29254723E+00
5780.7998       1.31779575E+00
5782.2002       1.34183025E+00
5783.6001       1.37654781E+00
5785.0000       1.37751865E+00
5786.3999       1.36562252E+00
5787.7998       1.37193489E+00
5789.2002       1.37776184E+00
5790.6001       1.39669800E+00
5792.0000       1.44039822E+00
5793.3999       1.48215580E+00
5794.7998       1.49987888E+00
5796.2002       1.50473404E+00
5797.6001       1.50740433E+00
5799.0000       1.50084972E+00
5800.3999       1.49550819E+00
5801.7998       1.51954365E+00
5803.2002       1.54940510E+00
5804.6001       1.55887318E+00
5806.0000       1.56518555E+00
5807.3999       1.55814552E+00
5808.7998       1.52197170E+00
5810.2002       1.42267513E+00
5811.6001       1.32507896E+00
5813.0000       1.25661564E+00
5814.3999       1.19931984E+00
5815.7998       1.17212868E+00
5817.2002       1.15877628E+00
5818.6001       1.14906502E+00
5820.0000       1.16897297E+00
5821.3999       1.19082260E+00
5822.7998       1.21097374E+00
5824.2002       1.23039627E+00
5825.6001       1.24957466E+00
5827.0000       1.24738979E+00
5828.3999       1.26948261E+00
5829.7998       1.32823467E+00
5831.2002       1.35057068E+00
5832.6001       1.35639763E+00
5834.0000       1.34401512E+00
5835.3999       1.34158802E+00
5836.7998       1.33770370E+00
5838.2002       1.30832672E+00
5839.6001       1.27093983E+00
5841.0000       1.26389885E+00
5842.3999       1.28210735E+00
5843.7998       1.31026936E+00
5845.2002       1.31245422E+00
5846.6001       1.23379421E+00
5848.0000       1.14882278E+00
5849.3999       1.08715725E+00
5850.7998       1.05389690E+00
5852.2002       1.05656719E+00
5853.6001       1.05049801E+00
5855.0000       1.04394245E+00
5856.3999       1.03738785E+00
5857.7998       1.04564190E+00
5859.2002       1.05996609E+00
5860.6001       1.05049801E+00
5862.0000       1.02184963E+00
5863.3999       9.94901657E-01
5864.7998       9.81306076E-01
5866.2002       9.72566605E-01
5867.6001       9.83005524E-01
5869.0000       1.00922585E+00
5870.3999       9.88103867E-01
5871.7998       9.31779861E-01
5873.2002       9.12842751E-01
5874.6001       8.93177986E-01
5876.0000       8.46322060E-01
5877.3999       8.31997871E-01
5878.7998       8.35396767E-01
5880.2002       8.28598976E-01
5881.6001       7.99466133E-01
5883.0000       7.62563705E-01
5884.3999       6.96770668E-01
5885.7998       5.99417686E-01
5887.2002       4.90653038E-01
5888.6001       3.91357422E-01
5890.0000       3.68293762E-01
5891.3999       4.29472923E-01
5892.7998       4.57392693E-01
5894.2002       4.04224396E-01
5895.6001       3.94513130E-01
5897.0000       4.75601196E-01
5898.3999       5.72711945E-01
5899.7998       6.53313637E-01
5901.2002       7.03326225E-01
5902.6001       7.14008331E-01
5904.0000       7.19106674E-01
5905.3999       7.31002808E-01
5906.7998       7.46054649E-01
5908.2002       7.64263153E-01
5909.6001       7.77858734E-01
5911.0000       7.89026260E-01
5912.3999       8.05778503E-01
5913.7998       8.40738297E-01
5915.2002       8.64530563E-01
5916.6001       8.70841980E-01
5918.0000       8.60646248E-01
5919.3999       8.39038849E-01
5920.7998       8.23500633E-01
5922.2002       8.31027031E-01
5923.6001       8.28598976E-01
5925.0000       8.20344925E-01
5926.3999       8.20830345E-01
5927.7998       8.36125374E-01
5929.2002       8.43651772E-01
5930.6001       8.56033325E-01
5932.0000       8.96820068E-01
5933.3999       9.32265282E-01
5934.7998       9.47802544E-01
5936.2002       9.61155891E-01
5937.6001       9.65282440E-01
5939.0000       9.54358101E-01
5940.3999       9.53144073E-01
5941.7998       9.75236893E-01
5943.2002       1.00971127E+00
5944.6001       1.01990795E+00
5946.0000       9.79606628E-01
5947.3999       9.28137779E-01
5948.7998       8.96820068E-01
5950.2002       8.96576881E-01
5951.6001       9.20612335E-01
5953.0000       9.26681519E-01
5954.3999       8.87594223E-01
5955.7998       8.64044189E-01
5957.2002       8.78368378E-01
5958.6001       8.97062302E-01
5960.0000       9.08229828E-01
5961.3999       9.13085938E-01
5962.7998       9.10901070E-01
5964.2002       9.22797203E-01
5965.6001       9.34935570E-01
5967.0000       9.48531151E-01
5968.3999       9.58242416E-01
5969.7998       9.66739655E-01
5971.2002       9.23768044E-01
5972.6001       8.97790909E-01
5974.0000       9.29351807E-01
5975.3999       9.61155891E-01
5976.7998       9.58971024E-01
5978.2002       9.49745178E-01
5979.6001       9.73294258E-01
5981.0000       1.00388432E+00
5982.3999       1.01311016E+00
5983.7998       1.01917934E+00
5985.2002       1.05171204E+00
5986.6001       1.04539967E+00
5988.0000       1.03787327E+00
5989.3999       1.05122566E+00
5990.7998       1.07647514E+00
5992.2002       1.10099506E+00
5993.6001       1.10463715E+00
5995.0000       1.11216354E+00
5996.3999       1.12357330E+00
5997.7998       1.10609341E+00
5999.2002       1.06554985E+00
6000.6001       1.04054356E+00
6002.0000       1.05972290E+00
6003.3999       1.07186222E+00
6004.7998       1.06093693E+00
6006.2002       1.05923748E+00
6007.6001       1.06943417E+00
6009.0000       1.08667183E+00
6010.3999       1.10293770E+00
6011.7998       1.11216354E+00
6013.2002       1.10172367E+00
6014.6001       1.09419727E+00
6016.0000       1.12333107E+00
6017.3999       1.15877628E+00
6018.7998       1.16217518E+00
6020.2002       1.15222168E+00
6021.6001       1.15197849E+00
6023.0000       1.16047573E+00
6024.3999       1.17285728E+00
6025.7998       1.19058037E+00
6027.2002       1.22262669E+00
6028.6001       1.24471951E+00
6030.0000       1.22214127E+00
6031.3999       1.21534348E+00
6032.7998       1.20320511E+00
6034.2002       1.16970158E+00
6035.6001       1.10148048E+00
6037.0000       1.11022091E+00
6038.3999       1.17698479E+00
6039.7998       1.22626877E+00
6041.2002       1.24447632E+00
6042.6001       1.26025772E+00
6044.0000       1.27093983E+00
6045.3999       1.27555275E+00
6046.7998       1.27967930E+00
6048.2002       1.28696251E+00
6049.6001       1.31124020E+00
6051.0000       1.30298615E+00
6052.3999       1.30856991E+00
6053.7998       1.33211899E+00
6055.2002       1.32872009E+00
6056.6001       1.32629299E+00
6058.0000       1.34013081E+00
6059.3999       1.33624649E+00
6060.7998       1.31536770E+00
6062.2002       1.29351807E+00
6063.6001       1.27725220E+00
6065.0000       1.26219940E+00
6066.3999       1.28113651E+00
6067.7998       1.33624649E+00
6069.2002       1.36805058E+00
6070.6001       1.36392307E+00
6072.0000       1.35688305E+00
6073.3999       1.35154152E+00
6074.7998       1.34280205E+00
6076.2002       1.33114815E+00
6077.6001       1.30347157E+00
6079.0000       1.26972580E+00
6080.3999       1.26535606E+00
6081.7998       1.31464005E+00
6083.2002       1.33041954E+00
6084.6001       1.34183025E+00
6086.0000       1.34838581E+00
6087.3999       1.34887123E+00
6088.7998       1.34377289E+00
6090.2002       1.35518360E+00
6091.6001       1.40373898E+00
6093.0000       1.42777348E+00
6094.3999       1.42655945E+00
6095.7998       1.41272163E+00
6097.2002       1.37727642E+00
6098.6001       1.37242031E+00
6100.0000       1.34328747E+00
6101.3999       1.29861641E+00
6102.7998       1.27846527E+00
6104.2002       1.29157543E+00
6105.6001       1.34037399E+00
6107.0000       1.36877918E+00
6108.3999       1.36999321E+00
6109.7998       1.36950684E+00
6111.2002       1.37970352E+00
6112.6001       1.43869877E+00
6114.0000       1.44913864E+00
6115.3999       1.38868713E+00
6116.7998       1.34547234E+00
6118.2002       1.33381844E+00
6119.6001       1.32483578E+00
6121.0000       1.27409554E+00
6122.3999       1.24884701E+00
6123.7998       1.32799244E+00
6125.2002       1.39815521E+00
6126.6001       1.40738010E+00
6128.0000       1.42340374E+00
6129.3999       1.45083809E+00
6130.7998       1.45277977E+00
6132.2002       1.43335724E+00
6133.6001       1.44088364E+00
6135.0000       1.44282627E+00
6136.3999       1.42825890E+00
6137.7998       1.43360043E+00
6139.2002       1.46394730E+00
6140.6001       1.48749733E+00
6142.0000       1.48555470E+00
6143.3999       1.47244453E+00
6144.7998       1.47487259E+00
6146.2002       1.44913864E+00
6147.6001       1.36805058E+00
6149.0000       1.28453541E+00
6150.3999       1.27385330E+00
6151.7998       1.31124020E+00
6153.2002       1.29011917E+00
6154.6001       1.22165585E+00
6156.0000       1.14809418E+00
6157.3999       1.07453251E+00
6158.7998       9.71109390E-01
6160.2002       8.83466721E-01
6161.6001       8.13303947E-01
6163.0000       7.90240288E-01
6164.3999       8.09177399E-01
6165.7998       8.37824821E-01
6167.2002       8.57975006E-01
6168.6001       8.54333878E-01
6170.0000       8.54819298E-01
6171.3999       8.76912117E-01
6172.7998       8.80311012E-01
6174.2002       8.68171692E-01
6175.6001       8.80796432E-01
6177.0000       9.09687042E-01
6178.3999       9.41733360E-01
6179.7998       9.58242416E-01
6181.2002       9.32750702E-01
6182.6001       8.62102509E-01
6184.0000       8.33211899E-01
6185.3999       7.88784027E-01
6186.7998       7.56979942E-01
6188.2002       7.42655754E-01
6189.6001       7.40956306E-01
6191.0000       7.50667572E-01
6192.3999       7.55037308E-01
6193.7998       7.66933441E-01
6195.2002       7.74216652E-01
6196.6001       7.92910576E-01
6198.0000       8.10876846E-01
6199.3999       8.22286606E-01
6200.7998       8.36610794E-01
6202.2002       8.47778320E-01
6203.6001       8.53848457E-01
6205.0000       8.54819298E-01
6206.3999       8.77882957E-01
6207.7998       8.99975777E-01
6209.2002       8.73270035E-01
6210.6001       8.31512451E-01
6212.0000       8.01165581E-01
6213.3999       7.58436203E-01
6214.7998       7.07695961E-01
6216.2002       6.89972878E-01
6217.6001       7.00169563E-01
6219.0000       7.01626778E-01
6220.3999       6.89002037E-01
6221.7998       6.58169746E-01
6223.2002       6.27821922E-01
6224.6001       6.26851082E-01
6226.0000       6.35833740E-01
6227.3999       6.44816399E-01
6228.7998       6.56712532E-01
6230.2002       6.63024902E-01
6231.6001       6.73950195E-01
6233.0000       7.07452774E-01
6234.3999       7.22747803E-01
6235.7998       7.26146698E-01
6237.2002       7.23961830E-01
6238.6001       7.24205017E-01
6240.0000       7.22747803E-01
6241.3999       7.28089333E-01
6242.7998       7.30517387E-01
6244.2002       7.45083809E-01
6245.6001       7.47997284E-01
6247.0000       7.63534546E-01
6248.3999       7.89026260E-01
6249.7998       7.99951553E-01
6251.2002       8.16946030E-01
6252.6001       8.01165581E-01
6254.0000       8.11119080E-01
6255.3999       8.42437744E-01
6256.7998       8.71813774E-01
6258.2002       9.06288147E-01
6259.6001       9.30808067E-01
6261.0000       9.59698677E-01
6262.3999       9.27895546E-01
6263.7998       9.07987595E-01
6265.2002       9.20125961E-01
6266.6001       9.14299965E-01
6268.0000       9.17941093E-01
6269.3999       9.35178757E-01
6270.7998       9.60670471E-01
6272.2002       9.80335236E-01
6273.6001       9.66011047E-01
6275.0000       9.35178757E-01
6276.3999       9.09443855E-01
6277.7998       9.19155121E-01
6279.2002       9.46103096E-01
6280.6001       9.43432808E-01
6282.0000       9.74508286E-01
6283.3999       9.98785973E-01
6284.7998       1.03593063E+00
6286.2002       1.07744598E+00
6287.6001       1.10415173E+00
6289.0000       1.11119175E+00
6290.3999       1.06870651E+00
6291.7998       1.07647514E+00
6293.2002       1.09808159E+00
6294.6001       1.10220909E+00
6296.0000       1.11653328E+00
6297.3999       1.15634823E+00
6298.7998       1.20369053E+00
6300.2002       1.22189903E+00
6301.6001       1.22772503E+00
6303.0000       1.24787521E+00
6304.3999       1.27482414E+00
6305.7998       1.29327488E+00
6307.2002       1.31439686E+00
6308.6001       1.32920647E+00
6310.0000       1.34959984E+00
6311.3999       1.36343765E+00
6312.7998       1.36100960E+00
6314.2002       1.37800407E+00
6315.6001       1.40738010E+00
6317.0000       1.41393566E+00
6318.3999       1.40835190E+00
6319.7998       1.40131092E+00
6321.2002       1.39888287E+00
6322.6001       1.40543842E+00
6324.0000       1.43457127E+00
6325.3999       1.47390175E+00
6326.7998       1.48215580E+00
6328.2002       1.48264122E+00
6329.6001       1.49162388E+00
6331.0000       1.51493073E+00
6332.3999       1.51614475E+00
6333.7998       1.51808739E+00
6335.2002       1.51857281E+00
6336.6001       1.52804089E+00
6338.0000       1.56251526E+00
6339.3999       1.60985661E+00
6340.7998       1.64263153E+00
6342.2002       1.62272453E+00
6343.6001       1.63194942E+00
6345.0000       1.65938377E+00
6346.3999       1.68414688E+00
6347.7998       1.71206570E+00
6349.2002       1.65719795E+00
6350.6001       1.64093208E+00
6352.0000       1.64772987E+00
6353.3999       1.62952232E+00
6354.7998       1.54066563E+00
6356.2002       1.47924232E+00
6357.6001       1.48239899E+00
6359.0000       1.51323128E+00
6360.3999       1.52779770E+00
6361.7998       1.52901173E+00
6363.2002       1.54042244E+00
6364.6001       1.55304718E+00
6366.0000       1.55571747E+00
6367.3999       1.56008720E+00
6368.7998       1.56421471E+00
6370.2002       1.56931305E+00
6371.6001       1.59893227E+00
6373.0000       1.61374092E+00
6374.3999       1.59868908E+00
6375.7998       1.60281658E+00
6377.2002       1.58485031E+00
6378.6001       1.50400543E+00
6380.0000       1.42704582E+00
6381.3999       1.43165779E+00
6382.7998       1.45642185E+00
6384.2002       1.45399380E+00
6385.6001       1.41345024E+00
6387.0000       1.37703323E+00
6388.3999       1.41369247E+00
6389.7998       1.49356651E+00
6391.2002       1.54746342E+00
6392.6001       1.57829571E+00
6394.0000       1.62806511E+00
6395.3999       1.68317604E+00
6396.7998       1.69094467E+00
6398.2002       1.69288635E+00
6399.6001       1.69749928E+00
6401.0000       1.69312954E+00
6402.3999       1.70696831E+00
6403.7998       1.75770855E+00
6405.2002       1.81378937E+00
6406.6001       1.85700417E+00
6408.0000       1.90507412E+00
6409.3999       1.93396473E+00
6410.7998       1.93614960E+00
6412.2002       1.91745567E+00
6413.6001       1.87691212E+00
6415.0000       1.81451797E+00
6416.3999       1.77591610E+00
6417.7998       1.77445984E+00
6419.2002       1.75649452E+00
6420.6001       1.71255112E+00
6422.0000       1.70186996E+00
6423.3999       1.73731518E+00
6424.7998       1.78150082E+00
6426.2002       1.80577850E+00
6427.6001       1.80310726E+00
6429.0000       1.82204437E+00
6430.3999       1.84729290E+00
6431.7998       1.86744404E+00
6433.2002       1.91964054E+00
6434.6001       1.90968704E+00
6436.0000       1.85093498E+00
6437.3999       1.78878403E+00
6438.7998       1.76572037E+00
6440.2002       1.86623001E+00
6441.6001       1.95508575E+00
6443.0000       2.01869392E+00
6444.3999       2.07186222E+00
6445.7998       2.03059006E+00
6447.2002       1.92401123E+00
6448.6001       1.89536285E+00
6450.0000       1.91794109E+00
6451.3999       2.00752640E+00
6452.7998       2.08108711E+00
6454.2002       2.08521461E+00
6455.6001       2.07404709E+00
6457.0000       2.06894875E+00
6458.3999       2.05850983E+00
6459.7998       2.04831314E+00
6461.2002       1.99490166E+00
6462.6001       1.98154926E+00
6464.0000       2.03860188E+00
6465.3999       2.13959694E+00
6466.7998       2.27433872E+00
6468.2002       2.30978394E+00
6469.6001       2.24836159E+00
6471.0000       2.20806026E+00
6472.3999       2.21752834E+00
6473.7998       2.23015308E+00
6475.2002       2.23063850E+00
6476.6001       2.25345993E+00
6478.0000       2.18621063E+00
6479.3999       2.09759712E+00
6480.7998       2.10196686E+00
6482.2002       2.04345703E+00
6483.6001       2.00388432E+00
6485.0000       1.99684429E+00
6486.3999       2.02452087E+00
6487.7998       2.07866001E+00
6489.2002       2.05850983E+00
6490.6001       2.04200077E+00
6492.0000       2.03204727E+00
6493.3999       1.97645092E+00
6494.7998       2.04272842E+00
6496.2002       2.10099506E+00
6497.6001       2.12503052E+00
6499.0000       2.14760876E+00
6500.3999       2.19980621E+00
6501.7998       2.25952911E+00
6503.2002       2.28186417E+00
6504.6001       2.26511288E+00
6506.0000       2.26317024E+00
6507.3999       2.31755257E+00
6508.7998       2.33066273E+00
6510.2002       2.33041954E+00
6511.6001       2.32872009E+00
6513.0000       2.30614281E+00
6514.3999       2.28162193E+00
6515.7998       2.28914833E+00
6517.2002       2.34547234E+00
6518.6001       2.45205116E+00
6520.0000       2.50060654E+00
6521.3999       2.50546265E+00
6522.7998       2.53945160E+00
6524.2002       2.57344055E+00
6525.6001       2.58557892E+00
6527.0000       2.58072281E+00
6528.3999       2.61228466E+00
6529.7998       2.57829571E+00
6531.2002       2.54673481E+00
6532.6001       2.56130123E+00
6534.0000       2.63170624E+00
6535.3999       2.65841198E+00
6536.7998       2.66326809E+00
6538.2002       2.68268967E+00
6539.6001       2.73852921E+00
6541.0000       2.76523399E+00
6542.3999       2.68511772E+00
6543.7998       2.60985661E+00
6545.2002       2.54430676E+00
6546.6001       2.46661758E+00
6548.0000       2.39936924E+00
6549.3999       2.32969189E+00
6550.7998       2.28769112E+00
6552.2002       2.24156380E+00
6553.6001       2.26268578E+00
6555.0000       2.28477764E+00
6556.3999       2.30808449E+00
6557.7998       2.35639763E+00
6559.2002       2.41976166E+00
6560.6001       2.39694118E+00
6562.0000       2.33041954E+00
6563.3999       2.28769112E+00
6564.7998       2.27021122E+00
6566.2002       2.25054646E+00
6567.6001       2.23088169E+00
6569.0000       2.20854568E+00
6570.3999       2.16605949E+00
6571.7998       2.15464973E+00
6573.2002       2.16290379E+00
6574.6001       2.16314697E+00
6576.0000       2.18548203E+00
6577.3999       2.17431450E+00
6578.7998       2.13304234E+00
6580.2002       2.14445305E+00
6581.6001       2.21510124E+00
6583.0000       2.26292801E+00
6584.3999       2.30007267E+00
6585.7998       2.33648968E+00
6587.2002       2.39596939E+00
6588.6001       2.38164616E+00
6590.0000       2.30929852E+00
6591.3999       2.22845364E+00
6592.7998       2.13498402E+00
6594.2002       2.12260246E+00
6595.6001       2.12721539E+00
6597.0000       2.11944675E+00
6598.3999       2.14469528E+00
6599.7998       2.15756226E+00
6601.2002       2.14615250E+00
6602.6001       2.14590931E+00
6604.0000       2.18718147E+00
6605.3999       2.14105415E+00
6606.7998       2.14590931E+00
6608.2002       2.15149307E+00
6609.6001       2.15246391E+00
6611.0000       2.14615250E+00
6612.3999       2.14930820E+00
6613.7998       2.13716888E+00
6615.2002       2.10002422E+00
6616.6001       2.06919193E+00
6618.0000       1.99393082E+00
6619.3999       1.94610310E+00
6620.7998       1.96334076E+00
6622.2002       1.94003391E+00
6623.6001       1.88710880E+00
6625.0000       1.84535122E+00
6626.3999       1.82520008E+00
6627.7998       1.86501598E+00
6629.2002       1.92862320E+00
6630.6001       1.96236992E+00
6632.0000       1.96212673E+00
6633.3999       1.87642670E+00
6634.7998       1.81937408E+00
6636.2002       1.82641411E+00
6637.6001       1.82617188E+00
6639.0000       1.84049511E+00
6640.3999       1.85166359E+00
6641.7998       1.85360527E+00
6643.2002       1.87351322E+00
6644.6001       1.80407906E+00
6646.0000       1.76256371E+00
6647.3999       1.72566128E+00
6648.7998       1.67783451E+00
6650.2002       1.54090786E+00
6651.6001       1.48968220E+00
6653.0000       1.49380875E+00
6654.3999       1.55426121E+00
6655.7998       1.56591415E+00
6657.2002       1.54479218E+00
6658.6001       1.54649162E+00
6660.0000       1.57368279E+00
6661.3999       1.61811161E+00
6662.7998       1.62927914E+00
6664.2002       1.65185738E+00
6665.6001       1.70308304E+00
6667.0000       1.71352291E+00
6668.3999       1.69531441E+00
6669.7998       1.72129154E+00
6671.2002       1.73391628E+00
6672.6001       1.70890999E+00
6674.0000       1.65768433E+00
6675.3999       1.59868908E+00
6676.7998       1.58679295E+00
6678.2002       1.53653812E+00
6679.6001       1.44598198E+00
6681.0000       1.36319542E+00
6682.3999       1.33551788E+00
6683.7998       1.37533379E+00
6685.2002       1.41005135E+00
6686.6001       1.42607403E+00
6688.0000       1.43529987E+00
6689.3999       1.43942738E+00
6690.7998       1.43238640E+00
6692.2002       1.42971611E+00
6693.6001       1.42000484E+00
6695.0000       1.48701096E+00
6696.3999       1.49308109E+00
6697.7998       1.49235249E+00
6699.2002       1.52707005E+00
6700.6001       1.53969383E+00
6702.0000       1.56154442E+00
6703.3999       1.58048058E+00
6704.7998       1.58339405E+00
6706.2002       1.58679295E+00
6707.6001       1.57732487E+00
6709.0000       1.54891968E+00
6710.3999       1.52998352E+00
6711.7998       1.49478054E+00
6713.2002       1.40349579E+00
6714.6001       1.29157543E+00
6716.0000       1.20563221E+00
6717.3999       1.17771339E+00
6718.7998       1.18936634E+00
6720.2002       1.22384071E+00
6721.6001       1.26147079E+00
6723.0000       1.26341343E+00
6724.3999       1.28404999E+00
6725.7998       1.33211899E+00
6727.2002       1.33333302E+00
6728.6001       1.31026936E+00
6730.0000       1.30031586E+00
6731.3999       1.33139133E+00
6732.7998       1.38116074E+00
6734.2002       1.40907955E+00
6735.6001       1.41830540E+00
6737.0000       1.44379711E+00
6738.3999       1.46831799E+00
6739.7998       1.46661854E+00
6741.2002       1.46443367E+00
6742.6001       1.46540451E+00
6744.0000       1.47293091E+00
6745.3999       1.44671059E+00
6746.7998       1.37339211E+00
6748.2002       1.31002712E+00
6749.6001       1.28599167E+00
6751.0000       1.31124020E+00
6752.3999       1.33406162E+00
6753.7998       1.36028194E+00
6755.2002       1.38941479E+00
6756.6001       1.39791203E+00
6758.0000       1.38795853E+00
6759.3999       1.40665245E+00
6760.7998       1.45253754E+00
6762.2002       1.49040985E+00
6763.6001       1.52707005E+00
6765.0000       1.54017925E+00
6766.3999       1.52925491E+00
6767.7998       1.50254917E+00
6769.2002       1.48871040E+00
6770.6001       1.49453735E+00
6772.0000       1.50182056E+00
6773.3999       1.52901173E+00
6774.7998       1.53848076E+00
6776.2002       1.53143978E+00
6777.6001       1.55426121E+00
6779.0000       1.54017925E+00
6780.3999       1.45156574E+00
6781.7998       1.34037399E+00
6783.2002       1.30322933E+00
6784.6001       1.29788780E+00
6786.0000       1.29837322E+00
6787.3999       1.31925201E+00
6788.7998       1.37290573E+00
6790.2002       1.37290573E+00
6791.6001       1.37242031E+00
6793.0000       1.38917255E+00
6794.3999       1.39815521E+00
6795.7998       1.43894196E+00
6797.2002       1.44404030E+00
6798.6001       1.43627071E+00
6800.0000       1.46419048E+00
6801.3999       1.46613312E+00
6802.7998       1.44889545E+00
6804.2002       1.44404030E+00
6805.6001       1.46516132E+00
6807.0000       1.51420212E+00
6808.3999       1.53265381E+00
6809.7998       1.53241062E+00
6811.2002       1.53653812E+00
6812.6001       1.52925491E+00
6814.0000       1.49065304E+00
6815.3999       1.45617867E+00
6816.7998       1.43845558E+00
6818.2002       1.42680264E+00
6819.6001       1.41369247E+00
6821.0000       1.40738010E+00
6822.3999       1.42971611E+00
6823.7998       1.48409843E+00
6825.2002       1.52075768E+00
6826.6001       1.51663017E+00
6828.0000       1.51711559E+00
6829.3999       1.52949715E+00
6830.7998       1.53216839E+00
6832.2002       1.50934696E+00
6833.6001       1.52391338E+00
6835.0000       1.53896618E+00
6836.3999       1.55523205E+00
6837.7998       1.58727837E+00
6839.2002       1.60184479E+00
6840.6001       1.62879372E+00
6842.0000       1.65428543E+00
6843.3999       1.64190292E+00
6844.7998       1.58193779E+00
6846.2002       1.56834221E+00
6847.6001       1.55571747E+00
6849.0000       1.53289604E+00
6850.3999       1.45739269E+00
6851.7998       1.43262959E+00
6853.2002       1.41223621E+00
6854.6001       1.38164616E+00
6856.0000       1.38577366E+00
6857.3999       1.39864063E+00
6858.7998       1.42558861E+00
6860.2002       1.45836353E+00
6861.6001       1.46856022E+00
6863.0000       1.47438717E+00
6864.3999       1.40373898E+00
6865.7998       1.26317024E+00
6867.2002       1.13425636E+00
6868.6001       1.05001259E+00
6870.0000       1.05171204E+00
6871.3999       1.10925007E+00
6872.7998       1.17237186E+00
6874.2002       1.23962116E+00
6875.6001       1.31731033E+00
6877.0000       1.40155411E+00
6878.3999       1.45836353E+00
6879.7998       1.48215580E+00
6881.2002       1.47972870E+00
6882.6001       1.47195911E+00
6884.0000       1.44064140E+00
6885.3999       1.43044472E+00
6886.7998       1.45375061E+00
6888.2002       1.48239899E+00
6889.6001       1.45812035E+00
6891.0000       1.44161224E+00
6892.3999       1.44088364E+00
6893.7998       1.47050285E+00
6895.2002       1.49405193E+00
6896.6001       1.56761360E+00
6898.0000       1.56882763E+00
6899.3999       1.49235249E+00
6900.7998       1.46079159E+00
6902.2002       1.52342796E+00
6903.6001       1.62248135E+00
6905.0000       1.72954559E+00
6906.3999       1.78805542E+00
6907.7998       1.80529213E+00
6909.2002       1.80990505E+00
6910.6001       1.80602074E+00
6912.0000       1.80674934E+00
6913.3999       1.79898071E+00
6914.7998       1.78732681E+00
6916.2002       1.73537254E+00
6917.6001       1.65598488E+00
6919.0000       1.65477085E+00
6920.3999       1.73537254E+00
6921.7998       1.81087685E+00
6923.2002       1.87496948E+00
6924.6001       1.92838097E+00
6926.0000       1.95605755E+00
6927.3999       1.96819592E+00
6928.7998       1.97183800E+00
6930.2002       2.00048542E+00
6931.6001       2.02039337E+00
6933.0000       2.02476311E+00
6934.3999       2.05996609E+00
6935.7998       2.09444046E+00
6937.2002       2.12964344E+00
6938.6001       2.16144753E+00
6940.0000       2.20223331E+00
6941.3999       2.27846527E+00
6942.7998       2.34377289E+00
6944.2002       2.39159966E+00
6945.6001       2.42728806E+00
6947.0000       2.41636276E+00
6948.3999       2.38091755E+00
6949.7998       2.35955334E+00
6951.2002       2.35736847E+00
6952.6001       2.33066273E+00
6954.0000       2.33721733E+00
6955.3999       2.32629299E+00
6956.7998       2.32070923E+00
6958.2002       2.32847786E+00
6959.6001       2.33357620E+00
6961.0000       2.35154152E+00
6962.3999       2.38601589E+00
6963.7998       2.43505669E+00
6965.2002       2.42510319E+00
6966.6001       2.43505669E+00
6968.0000       2.46176243E+00
6969.3999       2.44234085E+00
6970.7998       2.48118496E+00
6972.2002       2.52488518E+00
6973.6001       2.51274586E+00
6975.0000       2.52245712E+00
6976.3999       2.54673481E+00
6977.7998       2.57344055E+00
6979.2002       2.58072281E+00
6980.6001       2.60257339E+00
6982.0000       2.68268967E+00
6983.3999       2.73124504E+00
6984.7998       2.72638988E+00
6986.2002       2.73367310E+00
6987.6001       2.65598488E+00
6989.0000       2.59771824E+00
6990.3999       2.57344055E+00
6991.7998       2.56372929E+00
6993.2002       2.66326809E+00
6994.6001       2.71425056E+00
6996.0000       2.73852921E+00
6997.3999       2.74338436E+00
6998.7998       2.71667862E+00
7000.2002       2.68997383E+00
7001.6001       2.70696831E+00
7003.0000       2.73124504E+00
7004.3999       2.70696831E+00
7005.7998       2.66812325E+00
7007.2002       2.68268967E+00
7008.6001       2.71667862E+00
7010.0000       2.74338436E+00
7011.3999       2.85263443E+00
7012.7998       2.90361786E+00
7014.2002       2.90118980E+00
7015.6001       2.90847301E+00
7017.0000       2.86477280E+00
7018.3999       2.91332817E+00
7019.7998       2.98130608E+00
7021.2002       2.92789555E+00
7022.6001       2.84292316E+00
7024.0000       2.81136227E+00
7025.3999       2.85991764E+00
7026.7998       2.94731712E+00
7028.2002       3.03228951E+00
7029.6001       3.11240578E+00
7031.0000       3.10755062E+00
7032.3999       3.03714466E+00
7033.7998       3.14396667E+00
7035.2002       3.26292801E+00
7036.6001       3.36489487E+00
7038.0000       3.41830540E+00
7039.3999       3.38188934E+00
7040.7998       3.44743919E+00
7042.2002       3.52998352E+00
7043.6001       3.58824921E+00
7045.0000       3.60767174E+00
7046.3999       3.62709427E+00
7047.7998       3.54940510E+00
7049.2002       3.48385525E+00
7050.6001       3.43529987E+00
7052.0000       3.30420017E+00
7053.3999       2.76280594E+00
7054.7998       2.40640926E+00
7056.2002       2.29497433E+00
7057.6001       2.27361012E+00
7059.0000       2.20538998E+00
7060.3999       2.11750412E+00
7061.7998       2.11750412E+00
7063.2002       2.18669605E+00
7064.6001       2.26171398E+00
7066.0000       2.30201530E+00
7067.3999       2.29181862E+00
7068.7998       2.30225754E+00
7070.2002       2.36707973E+00
7071.6001       2.43262959E+00
7073.0000       2.44476795E+00
7074.3999       2.42680264E+00
7075.7998       2.45933533E+00
7077.2002       2.52002907E+00
7078.6001       2.52245712E+00
7080.0000       2.47390175E+00
7081.3999       2.49332333E+00
7082.7998       2.56858444E+00
7084.2002       2.50303459E+00
7085.6001       2.31366825E+00
7087.0000       1.98688984E+00
7088.3999       1.65622711E+00
7089.7998       1.70186996E+00
7091.2002       1.79315376E+00
7092.6001       1.82010174E+00
7094.0000       1.78101444E+00
7095.3999       1.77251816E+00
7096.7998       1.81184769E+00
7098.2002       1.84777832E+00
7099.6001       1.86234474E+00
7101.0000       1.85530472E+00
7102.3999       1.85748959E+00
7103.7998       1.89706230E+00
7105.2002       1.98397636E+00
7106.6001       2.05923748E+00
7108.0000       2.09832478E+00
7109.3999       2.15125084E+00
7110.7998       2.18936634E+00
7112.2002       2.19883442E+00
7113.6001       2.18669605E+00
7115.0000       2.16387463E+00
7116.3999       2.20806026E+00
7117.7998       2.25321674E+00
7119.2002       2.28769112E+00
7120.6001       2.32944870E+00
7122.0000       2.27700901E+00
7123.3999       2.03544521E+00
7124.7998       1.66642380E+00
7126.2002       1.46321964E+00
7127.6001       1.49769402E+00
7129.0000       1.53896618E+00
7130.3999       1.52197170E+00
7131.7998       1.44792461E+00
7133.2002       1.42704582E+00
7134.6001       1.50789070E+00
7136.0000       1.53071117E+00
7137.3999       1.54382133E+00
7138.7998       1.57004166E+00
7140.2002       1.58145142E+00
7141.6001       1.57659626E+00
7143.0000       1.59674644E+00
7144.3999       1.62418079E+00
7145.7998       1.62879372E+00
7147.2002       1.60597229E+00
7148.6001       1.64360237E+00
7150.0000       1.67759132E+00
7151.3999       1.70623970E+00
7152.7998       1.77518845E+00
7154.2002       1.86210251E+00
7155.6001       1.90386009E+00
7157.0000       1.87059975E+00
7158.3999       1.77907276E+00
7159.7998       1.75479507E+00
7161.2002       1.79655266E+00
7162.6001       1.82350063E+00
7164.0000       1.75406647E+00
7165.3999       1.73925686E+00
7166.7998       1.78732681E+00
7168.2002       1.81670284E+00
7169.6001       1.83127022E+00
7171.0000       1.82762814E+00
7172.3999       1.80165100E+00
7173.7998       1.79849434E+00
7175.2002       1.81791687E+00
7176.6001       1.84122372E+00
7178.0000       1.88759422E+00
7179.3999       1.91405678E+00
7180.7998       1.93784904E+00
7182.2002       1.96261215E+00
7183.6001       1.92838097E+00
7185.0000       1.88395214E+00
7186.3999       1.86768627E+00
7187.7998       1.94270515E+00
7189.2002       2.06506443E+00
7190.6001       2.02573395E+00
7192.0000       2.01165390E+00
7193.3999       2.03738785E+00
7194.7998       2.05656719E+00
7196.2002       1.99271679E+00
7197.6001       1.87885380E+00
7199.0000       1.79291058E+00
7200.3999       1.72663307E+00
7201.7998       1.74241352E+00
7203.2002       1.81621742E+00
7204.6001       1.87982559E+00
7206.0000       1.91599941E+00
7207.3999       1.94197655E+00
7208.7998       1.99417305E+00
7210.2002       2.05195427E+00
7211.6001       2.11823273E+00
7213.0000       2.19373608E+00
7214.3999       2.20951653E+00
7215.7998       2.24302006E+00
7217.2002       2.30250072E+00
7218.6001       2.32629299E+00
7220.0000       2.32240868E+00
7221.3999       2.38164616E+00
7222.7998       2.43020153E+00
7224.2002       2.40907955E+00
7225.6001       2.41417789E+00
7227.0000       2.42583179E+00
7228.3999       2.41175079E+00
7229.7998       2.35639763E+00
7231.2002       2.28429222E+00
7232.6001       2.25515938E+00
7234.0000       2.27118301E+00
7235.3999       2.34110260E+00
7236.7998       2.38237476E+00
7238.2002       2.33357620E+00
7239.6001       2.26389885E+00
7241.0000       2.29351807E+00
7242.3999       2.41150761E+00
7243.7998       2.43991280E+00
7245.2002       2.52002907E+00
7246.6001       2.63413429E+00
7248.0000       2.65112877E+00
7249.3999       2.65112877E+00
7250.7998       2.57829571E+00
7252.2002       2.57344055E+00
7253.6001       2.65355682E+00
7255.0000       2.74823952E+00
7256.3999       2.84049511E+00
7257.7998       2.87691212E+00
7259.2002       2.99830055E+00
7260.6001       3.01772308E+00
7262.0000       2.98858929E+00
7263.3999       2.95217323E+00
7264.7998       2.90361786E+00
7266.2002       2.89876175E+00
7267.6001       2.86962891E+00
7269.0000       2.77980042E+00
7270.3999       2.72153473E+00
7271.7998       2.73124504E+00
7273.2002       2.77251816E+00
7274.6001       2.78708458E+00
7276.0000       2.78708458E+00
7277.3999       2.84777832E+00
7278.7998       2.89147854E+00
7280.2002       2.89147854E+00
7281.6001       2.98373413E+00
7283.0000       3.05413914E+00
7284.3999       3.07113361E+00
7285.7998       3.12454510E+00
7287.2002       3.12211704E+00
7288.6001       2.98373413E+00
7290.0000       2.90604496E+00
7291.3999       2.89147854E+00
7292.7998       2.92061234E+00
7294.2002       3.12211704E+00
7295.6001       3.20951653E+00
7297.0000       3.16824532E+00
7298.3999       3.18038368E+00
7299.7998       3.19495010E+00
7301.2002       3.20708847E+00
7302.6001       3.13425636E+00
7304.0000       3.28477764E+00
7305.3999       3.38674450E+00
7306.7998       3.32119465E+00
7308.2002       3.24107838E+00
7309.6001       3.26778412E+00
7311.0000       3.38674450E+00
7312.3999       3.49842167E+00
7313.7998       3.47171593E+00
7315.2002       3.43287182E+00
7316.6001       3.44743919E+00
7318.0000       3.47900009E+00
7319.3999       3.49356651E+00
7320.7998       3.48385525E+00
7322.2002       3.44986629E+00
7323.6001       3.36732197E+00
7325.0000       3.35032749E+00
7326.3999       3.46443367E+00
7327.7998       3.58339405E+00
7329.2002       3.60524368E+00
7330.6001       3.60524368E+00
7332.0000       3.67079353E+00
7333.3999       3.66836643E+00
7334.7998       3.75819397E+00
7336.2002       3.87958241E+00
7337.6001       3.87715435E+00
7339.0000       3.78247166E+00
7340.3999       3.66108322E+00
7341.7998       3.62709427E+00
7343.2002       3.63437748E+00
7344.6001       3.63923264E+00
7346.0000       3.65137196E+00
7347.3999       3.74848270E+00
7348.7998       3.77518845E+00
7350.2002       3.75091076E+00
7351.6001       3.71449375E+00
7353.0000       3.69992733E+00
7354.3999       3.66836643E+00
7355.7998       3.66108322E+00
7357.2002       3.75091076E+00
7358.6001       3.74605465E+00
7360.0000       3.74362755E+00
7361.3999       3.75576591E+00
7362.7998       3.82374382E+00
7364.2002       3.89900398E+00
7365.6001       3.93299389E+00
7367.0000       3.88686562E+00
7368.3999       3.83102703E+00
7369.7998       3.92085457E+00
7371.2002       3.91842651E+00
7372.6001       3.85773277E+00
7374.0000       3.90386009E+00
7375.3999       3.91599941E+00
7376.7998       3.96455479E+00
7378.2002       4.05438232E+00
7379.6001       4.04709816E+00
7381.0000       3.98154926E+00
7382.3999       3.91599941E+00
7383.7998       3.86501598E+00
7385.2002       3.84559345E+00
7386.6001       3.81646061E+00
7388.0000       3.84559345E+00
7389.3999       3.91842651E+00
7390.7998       3.91842651E+00
7392.2002       3.88201046E+00
7393.6001       3.83345413E+00
7395.0000       3.90871620E+00
7396.3999       3.99854374E+00
7397.7998       4.04224396E+00
7399.2002       4.03981590E+00
7400.6001       3.93542099E+00
7402.0000       3.97912121E+00
7403.3999       4.07865906E+00
7404.7998       4.08837128E+00
7406.2002       3.98154926E+00
7407.6001       3.99854374E+00
7409.0000       4.03981590E+00
7410.3999       4.04467010E+00
7411.7998       4.04709816E+00
7413.2002       4.01553726E+00
7414.6001       4.02524948E+00
7416.0000       4.06652069E+00
7417.3999       4.10050964E+00
7418.7998       4.08837128E+00
7420.2002       4.01796532E+00
7421.6001       4.03253174E+00
7423.0000       4.12964249E+00
7424.3999       4.18305397E+00
7425.7998       4.18062592E+00
7427.2002       4.14663696E+00
